# SWMF run: SWMF_SWPC
# created at 2022-02-18T11:22:05.659256
# North, East and vertical components of magnetic field in nT
# computed from magnetosphere and ionosphere currents
# Station: ABK
Year Month Day Hour Min Sec B_NorthGeomag B_EastGeomag B_DownGeomag
2003   10   29    0   35   33      -56.751      -38.353      -20.079
2003   10   29    0   36   33      -45.914      -42.721      -34.763
2003   10   29    0   37   33      -45.199      -41.090      -34.061
2003   10   29    0   38   33      -49.278      -41.584      -33.021
2003   10   29    0   39   33      -55.990      -43.411      -36.286
2003   10   29    0   40   33      -59.341      -47.560      -37.367
2003   10   29    0   41   33      -58.532      -48.991      -33.470
2003   10   29    0   42   33      -62.295      -48.889      -35.215
2003   10   29    0   43   33      -56.263      -50.529      -34.626
2003   10   29    0   44   33      -63.246      -55.252      -35.184
2003   10   29    0   45   33      -81.886      -46.941       10.074
2003   10   29    0   46   33      -91.618      -48.443       26.593
2003   10   29    0   47   33      -96.214      -57.203       52.174
2003   10   29    0   48   33      -94.454      -62.729       73.590
2003   10   29    0   49   33      -99.227      -53.721       87.542
2003   10   29    0   50   33      -97.132      -52.522       94.041
2003   10   29    0   51   33      -97.488      -52.678       87.882
2003   10   29    0   52   33     -104.075      -35.994       97.846
2003   10   29    0   53   33     -107.313      -32.976       92.927
2003   10   29    0   54   33     -110.635      -32.368       93.630
2003   10   29    0   55   33     -117.821      -24.579       99.171
2003   10   29    0   56   33     -122.988       -9.751      103.384
2003   10   29    0   57   33     -127.451       -1.968      101.226
2003   10   29    0   58   33     -126.493       -3.119       90.013
2003   10   29    0   59   33     -125.081       -7.349       86.754
2003   10   29    1    0   33     -126.654       -8.852       86.474
2003   10   29    1    1   33     -128.251       -8.864       85.944
2003   10   29    1    2   33     -131.788      -12.720       82.084
2003   10   29    1    3   33     -137.770      -17.394       84.508
2003   10   29    1    4   33     -136.391      -25.545       99.750
2003   10   29    1    5   33     -139.038      -15.864      113.098
2003   10   29    1    6   33     -135.280       -9.396      115.812
2003   10   29    1    7   33     -133.931      -14.593      112.101
2003   10   29    1    8   33     -128.820       -6.640      107.836
2003   10   29    1    9   33     -114.478      -18.818       96.635
2003   10   29    1   10   33     -107.961      -26.666       86.132
2003   10   29    1   11   33     -109.289      -26.247       87.851
2003   10   29    1   12   33     -124.929      -10.265       94.213
2003   10   29    1   13   33     -126.667      -10.030       95.543
2003   10   29    1   14   33     -132.480       -9.614       96.516
2003   10   29    1   15   33     -135.536      -13.933       94.364
2003   10   29    1   16   33     -141.252      -10.430      101.312
2003   10   29    1   17   33     -135.408      -18.804       97.885
2003   10   29    1   18   33     -148.688      -12.558       92.559
2003   10   29    1   19   33     -145.665      -19.569       88.993
2003   10   29    1   20   33     -151.992      -24.062       83.813
2003   10   29    1   21   33     -149.007      -19.258       86.803
2003   10   29    1   22   33     -150.420       -5.808       68.294
2003   10   29    1   23   33     -144.854       -7.645       50.946
2003   10   29    1   24   33     -143.237      -19.612       43.331
2003   10   29    1   25   33     -143.800      -28.517       49.686
2003   10   29    1   26   33     -146.061      -31.041       34.533
2003   10   29    1   27   33     -153.541      -41.897       10.805
2003   10   29    1   28   33     -176.045      -53.069       68.917
2003   10   29    1   29   33     -192.859      -29.765       52.975
2003   10   29    1   30   33     -193.834      -32.506       37.834
2003   10   29    1   31   33     -204.213      -36.469       41.069
2003   10   29    1   32   33     -215.615      -28.222       39.909
2003   10   29    1   33   33     -205.008      -32.325       30.926
2003   10   29    1   34   33     -193.036      -39.331       22.360
2003   10   29    1   35   33     -192.023      -35.543       13.061
2003   10   29    1   36   33     -200.432      -49.470       -1.395
2003   10   29    1   37   33     -218.169      -54.043       28.710
2003   10   29    1   38   33     -238.832      -34.470       44.867
2003   10   29    1   39   33     -226.481      -26.308       31.947
2003   10   29    1   40   33     -217.785      -14.342        9.566
2003   10   29    1   41   33     -225.376      -11.262      -10.830
2003   10   29    1   42   33     -239.966      -20.000      -11.464
2003   10   29    1   43   33     -252.028      -25.665       -6.850
2003   10   29    1   44   33     -260.442      -20.582        2.581
2003   10   29    1   45   33     -264.039      -15.790      -15.984
2003   10   29    1   46   33     -270.872      -18.283      -14.450
2003   10   29    1   47   33     -277.020      -17.464      -18.785
2003   10   29    1   48   33     -280.327      -18.302      -22.362
2003   10   29    1   49   33     -275.811      -14.137      -22.441
2003   10   29    1   50   33     -275.654      -12.725      -30.878
2003   10   29    1   51   33     -288.853      -19.732      -36.020
2003   10   29    1   52   33     -301.125      -21.914      -31.200
2003   10   29    1   53   33     -304.752      -20.071      -42.177
2003   10   29    1   54   33     -306.171      -21.345      -46.474
2003   10   29    1   55   33     -294.254      -18.757      -46.721
2003   10   29    1   56   33     -283.134      -17.465      -57.290
2003   10   29    1   57   33     -283.844      -22.904      -40.722
2003   10   29    1   58   33     -261.797      -10.088      -30.997
2003   10   29    1   59   33     -249.587       -6.787      -37.540
2003   10   29    2    0   33     -245.603       -8.111      -42.556
2003   10   29    2    1   33     -234.308       -0.650      -51.763
2003   10   29    2    2   33     -230.896      -11.410      -47.766
2003   10   29    2    3   33     -224.319       -3.212      -40.061
2003   10   29    2    4   33     -211.233       -2.440      -45.401
2003   10   29    2    5   33     -195.595        2.021      -40.195
2003   10   29    2    6   33     -179.579        7.183      -35.593
2003   10   29    2    7   33     -157.376       13.177      -40.915
2003   10   29    2    8   33     -155.098        8.189      -42.762
2003   10   29    2    9   33     -140.904        9.179      -43.894
2003   10   29    2   10   33     -130.270        9.522      -45.578
2003   10   29    2   11   33     -124.877       10.325      -41.508
2003   10   29    2   12   33     -108.231       14.458      -43.217
2003   10   29    2   13   33     -107.101       13.139      -46.629
2003   10   29    2   14   33     -110.810        8.856      -43.201
2003   10   29    2   15   33     -101.803       15.485      -41.904
2003   10   29    2   16   33      -96.924       10.870      -52.975
2003   10   29    2   17   33     -106.776        7.415      -41.041
2003   10   29    2   18   33     -105.370        8.102      -35.292
2003   10   29    2   19   33      -88.517       12.506      -49.152
2003   10   29    2   20   33      -87.693       11.200      -44.065
2003   10   29    2   21   33      -85.410       13.583      -38.433
2003   10   29    2   22   33      -79.418       16.121      -46.319
2003   10   29    2   23   33      -75.076       13.273      -53.028
2003   10   29    2   24   33      -69.163        8.473      -56.423
2003   10   29    2   25   33      -68.190        3.429      -53.398
2003   10   29    2   26   33      -62.240       -0.432      -47.855
2003   10   29    2   27   33      -52.759       -8.539      -32.919
2003   10   29    2   28   33      -51.939       -7.423      -24.621
2003   10   29    2   29   33      -51.384       -5.278      -23.754
2003   10   29    2   30   33      -51.942       -5.142      -23.075
2003   10   29    2   31   33      -53.923       -1.968      -30.472
2003   10   29    2   32   33      -52.643       -3.608      -34.875
2003   10   29    2   33   33      -60.017        0.142      -34.106
2003   10   29    2   34   33      -35.424      -14.323      -39.826
2003   10   29    2   35   33      -49.538      -23.253      -19.646
2003   10   29    2   36   33      -75.479       -4.443      -30.207
2003   10   29    2   37   33      -71.015        0.008      -35.017
2003   10   29    2   38   33      -61.183        1.724      -44.353
2003   10   29    2   39   33      -59.603       -3.149      -43.235
2003   10   29    2   40   33      -62.083       -6.145      -35.212
2003   10   29    2   41   33      -61.470       -4.998      -32.565
2003   10   29    2   42   33      -61.126       -6.484      -30.537
2003   10   29    2   43   33      -62.524       -3.960      -30.637
2003   10   29    2   44   33      -66.214       -3.965      -29.054
2003   10   29    2   45   33      -69.690       -1.917      -27.661
2003   10   29    2   46   33      -67.739       -6.458      -27.619
2003   10   29    2   47   33      -87.855        2.321      -17.224
2003   10   29    2   48   33      -79.984        5.991      -37.521
2003   10   29    2   49   33      -80.337       -5.042      -40.126
2003   10   29    2   50   33      -92.433       -7.618      -27.335
2003   10   29    2   51   33     -100.977       -7.913      -20.495
2003   10   29    2   52   33     -110.034       -6.937      -21.331
2003   10   29    2   53   33     -118.306      -13.567      -11.666
2003   10   29    2   54   33     -134.100      -12.056        9.278
2003   10   29    2   55   33     -149.247      -17.113       -0.544
2003   10   29    2   56   33     -163.972      -12.707       10.221
2003   10   29    2   57   33     -163.686      -15.284        2.656
2003   10   29    2   58   33     -166.337      -13.372        1.513
2003   10   29    2   59   33     -176.893      -28.781       23.540
2003   10   29    3    0   33     -183.342      -11.398       33.356
2003   10   29    3    1   33     -186.376      -15.629       41.793
2003   10   29    3    2   33     -188.787       -8.497       40.904
2003   10   29    3    3   33     -196.592      -12.146       50.834
2003   10   29    3    4   33     -201.106       -2.099       56.409
2003   10   29    3    5   33     -205.128       11.496       48.296
2003   10   29    3    6   33     -215.879       11.425       46.238
2003   10   29    3    7   33     -215.314       22.629       39.752
2003   10   29    3    8   33     -226.271       21.373       45.615
2003   10   29    3    9   33     -208.672       31.775       18.762
2003   10   29    3   10   33     -211.266       28.208       16.099
2003   10   29    3   11   33     -207.725       28.170       13.946
2003   10   29    3   12   33     -201.302       30.265       14.055
2003   10   29    3   13   33     -191.863       34.329       10.813
2003   10   29    3   14   33     -190.448       35.497        3.989
2003   10   29    3   15   33     -185.493       36.350       -0.003
2003   10   29    3   16   33     -182.384       35.852      -12.869
2003   10   29    3   17   33     -196.451       31.367       -3.046
2003   10   29    3   18   33     -196.381       38.445       -0.619
2003   10   29    3   19   33     -195.537       41.300       -5.715
2003   10   29    3   20   33     -201.001       40.407       -2.943
2003   10   29    3   21   33     -177.058       49.913       -8.474
2003   10   29    3   22   33     -172.083       49.311      -16.732
2003   10   29    3   23   33     -157.782       51.498      -27.024
2003   10   29    3   24   33     -171.452       48.043      -16.757
2003   10   29    3   25   33     -155.060       56.021      -26.404
2003   10   29    3   26   33     -168.661       54.034      -16.910
2003   10   29    3   27   33     -170.906       58.297      -13.314
2003   10   29    3   28   33     -178.771       59.613       -6.924
2003   10   29    3   29   33     -175.799       62.118      -12.384
2003   10   29    3   30   33     -195.233       63.079       -3.768
2003   10   29    3   31   33     -196.587       66.761      -20.235
2003   10   29    3   32   33     -192.899       69.456      -32.276
2003   10   29    3   33   33     -198.281       68.352      -34.333
2003   10   29    3   34   33     -194.221       68.652      -42.509
2003   10   29    3   35   33     -195.025       66.638      -41.646
2003   10   29    3   36   33     -210.177       65.550      -33.264
2003   10   29    3   37   33     -228.129       62.269      -34.467
2003   10   29    3   38   33     -239.821       57.200      -26.186
2003   10   29    3   39   33     -233.006       58.080      -26.358
2003   10   29    3   40   33     -231.887       57.964      -23.413
2003   10   29    3   41   33     -227.516       59.188      -38.682
2003   10   29    3   42   33     -225.804       60.167      -48.670
2003   10   29    3   43   33     -229.963       57.732      -45.602
2003   10   29    3   44   33     -195.023       65.198      -52.712
2003   10   29    3   45   33     -168.773       64.751      -78.718
2003   10   29    3   46   33     -186.752       59.052      -73.794
2003   10   29    3   47   33     -173.621       60.092      -81.774
2003   10   29    3   48   33     -161.708       55.925      -92.585
2003   10   29    3   49   33     -168.822       51.897      -87.415
2003   10   29    3   50   33     -141.238       55.094      -97.991
2003   10   29    3   51   33     -148.263       44.534     -106.581
2003   10   29    3   52   33     -166.179       44.733      -94.150
2003   10   29    3   53   33     -154.993       42.657     -101.081
2003   10   29    3   54   33     -160.527       40.304      -92.012
2003   10   29    3   55   33     -167.969       47.724      -71.122
2003   10   29    3   56   33     -159.386       39.365      -91.925
2003   10   29    3   57   33     -182.033       37.005      -77.654
2003   10   29    3   58   33     -186.459       38.347      -72.286
2003   10   29    3   59   33     -186.020       35.657      -82.131
2003   10   29    4    0   33     -192.607       34.592      -79.588
2003   10   29    4    1   33     -194.893       34.052      -74.442
2003   10   29    4    2   33     -198.636       38.507      -63.153
2003   10   29    4    3   33     -198.598       40.186      -70.612
2003   10   29    4    4   33     -228.978       34.136      -62.851
2003   10   29    4    5   33     -240.695       36.790      -40.038
2003   10   29    4    6   33     -236.901       38.374      -45.703
2003   10   29    4    7   33     -241.278       36.449      -51.768
2003   10   29    4    8   33     -246.004       38.391      -48.490
2003   10   29    4    9   33     -235.791       39.471      -64.569
2003   10   29    4   10   33     -219.815       37.394      -86.265
2003   10   29    4   11   33     -233.110       35.654      -70.632
2003   10   29    4   12   33     -205.018       41.268      -84.915
2003   10   29    4   13   33     -194.326       31.904     -110.597
2003   10   29    4   14   33     -195.531       29.431     -104.639
2003   10   29    4   15   33     -190.718       28.645     -108.964
2003   10   29    4   16   33     -185.028       22.266     -117.243
2003   10   29    4   17   33     -189.038       20.870     -111.513
2003   10   29    4   18   33     -189.333       18.977     -117.338
2003   10   29    4   19   33     -191.211       16.718     -116.487
2003   10   29    4   20   33     -180.114       17.723     -116.884
2003   10   29    4   21   33     -181.338       11.666     -119.683
2003   10   29    4   22   33     -179.246       12.090     -113.158
2003   10   29    4   23   33     -163.243       11.394     -121.800
2003   10   29    4   24   33     -166.583        7.579     -121.161
2003   10   29    4   25   33     -160.064        9.428     -128.445
2003   10   29    4   26   33     -159.969        6.549     -130.594
2003   10   29    4   27   33     -156.419        1.809     -136.045
2003   10   29    4   28   33     -158.813       -2.984     -138.325
2003   10   29    4   29   33     -167.721       -5.698     -129.563
2003   10   29    4   30   33     -164.332       -7.351     -128.049
2003   10   29    4   31   33     -161.569      -13.703     -123.632
2003   10   29    4   32   33     -140.584      -13.184     -129.099
2003   10   29    4   33   33     -145.295      -23.438     -127.116
2003   10   29    4   34   33     -150.867      -23.248     -117.475
2003   10   29    4   35   33     -152.257      -27.027     -112.596
2003   10   29    4   36   33     -154.911      -31.351     -100.657
2003   10   29    4   37   33     -159.155      -34.998      -84.480
2003   10   29    4   38   33     -151.869      -34.805      -73.801
2003   10   29    4   39   33     -149.873      -35.588      -69.853
2003   10   29    4   40   33     -142.336      -34.985      -71.736
2003   10   29    4   41   33     -141.101      -40.512      -65.706
2003   10   29    4   42   33     -132.183      -43.240      -62.895
2003   10   29    4   43   33     -115.978      -31.357      -73.820
2003   10   29    4   44   33     -128.784      -71.146       11.886
2003   10   29    4   45   33     -140.145      -50.070       24.585
2003   10   29    4   46   33     -138.581      -45.489       26.853
2003   10   29    4   47   33     -123.025      -28.863        6.330
2003   10   29    4   48   33     -120.111      -29.514        2.287
2003   10   29    4   49   33     -108.227      -25.905      -11.467
2003   10   29    4   50   33      -95.724      -19.879      -18.432
2003   10   29    4   51   33     -100.728      -26.044      -16.502
2003   10   29    4   52   33      -93.864      -22.198      -23.857
2003   10   29    4   53   33     -103.813      -25.056      -14.872
2003   10   29    4   54   33     -110.422      -27.494       -0.245
2003   10   29    4   55   33     -108.406      -20.971        6.972
2003   10   29    4   56   33     -109.447      -23.552        6.643
2003   10   29    4   57   33     -108.599      -22.120        3.447
2003   10   29    4   58   33     -106.180      -18.316        5.362
2003   10   29    4   59   33     -107.099      -19.009        5.821
2003   10   29    5    0   33     -100.216      -15.139       -8.116
2003   10   29    5    1   33     -100.662      -15.476        2.198
2003   10   29    5    2   33      -93.180       -8.842        0.442
2003   10   29    5    3   33      -87.231       -8.209       -3.414
2003   10   29    5    4   33      -73.764        2.661      -15.443
2003   10   29    5    5   33      -69.003        5.173      -32.085
2003   10   29    5    6   33      -59.568        7.842      -52.770
2003   10   29    5    7   33      -44.437       15.187      -67.796
2003   10   29    5    8   33      -41.919       14.084      -79.058
2003   10   29    5    9   33      -73.531        8.831      -75.108
2003   10   29    5   10   33      -99.948        8.847      -77.149
2003   10   29    5   11   33     -119.988        5.950      -82.774
2003   10   29    5   12   33     -136.313       10.013      -74.957
2003   10   29    5   13   33     -146.317       10.383      -73.330
2003   10   29    5   14   33     -145.165       13.949      -75.993
2003   10   29    5   15   33     -138.415       15.994      -83.270
2003   10   29    5   16   33     -130.436       18.687      -91.384
2003   10   29    5   17   33     -132.970       17.412      -98.316
2003   10   29    5   18   33     -141.361       17.441      -97.796
2003   10   29    5   19   33     -145.460       21.870      -94.335
2003   10   29    5   20   33     -145.769       19.923     -105.237
2003   10   29    5   21   33     -156.865       21.410      -98.246
2003   10   29    5   22   33     -158.699       16.181     -101.116
2003   10   29    5   23   33     -158.318       12.676     -102.463
2003   10   29    5   24   33     -170.449        7.623      -95.687
2003   10   29    5   25   33     -177.077       12.958      -89.413
2003   10   29    5   26   33     -187.049       11.379      -73.820
2003   10   29    5   27   33     -177.168        7.953      -83.606
2003   10   29    5   28   33     -171.537        6.554      -92.802
2003   10   29    5   29   33     -173.433        0.411     -105.369
2003   10   29    5   30   33     -174.139       -2.891     -113.433
2003   10   29    5   31   33     -177.991      -10.261     -117.109
2003   10   29    5   32   33     -178.201       -8.427     -113.344
2003   10   29    5   33   33     -177.457      -12.101     -116.198
2003   10   29    5   34   33     -173.734       -8.538     -114.203
2003   10   29    5   35   33     -174.891       -7.582     -113.920
2003   10   29    5   36   33     -173.342       -4.896     -108.327
2003   10   29    5   37   33     -170.170       -5.743     -108.163
2003   10   29    5   38   33     -166.840      -11.787     -116.044
2003   10   29    5   39   33     -164.361      -24.724     -126.337
2003   10   29    5   40   33     -165.885      -32.137     -126.069
2003   10   29    5   41   33     -160.965      -22.815     -117.398
2003   10   29    5   42   33     -158.311      -19.428     -112.881
2003   10   29    5   43   33     -157.635      -13.333     -108.199
2003   10   29    5   44   33     -155.441      -11.231     -105.627
2003   10   29    5   45   33     -163.691      -19.352     -106.194
2003   10   29    5   46   33     -186.636      -30.608      -88.031
2003   10   29    5   47   33     -177.008      -32.639      -85.183
2003   10   29    5   48   33     -143.488      -25.525     -100.834
2003   10   29    5   49   33     -138.583      -19.363     -101.426
2003   10   29    5   50   33     -135.800      -24.591     -102.727
2003   10   29    5   51   33     -147.918      -35.360      -99.323
2003   10   29    5   52   33     -151.132      -39.460     -100.810
2003   10   29    5   53   33     -175.755      -48.145      -83.192
2003   10   29    5   54   33     -181.746      -46.263      -78.045
2003   10   29    5   55   33     -179.818      -50.713      -81.124
2003   10   29    5   56   33     -151.130      -37.870      -98.314
2003   10   29    5   57   33     -187.349      -41.886      -73.855
2003   10   29    5   58   33     -152.603      -26.122      -99.752
2003   10   29    5   59   33     -155.517      -19.163      -99.299
2003   10   29    6    0   33     -161.479      -13.180      -99.088
2003   10   29    6    1   33     -170.908      -11.941     -101.698
2003   10   29    6    2   33     -180.709      -11.927     -106.467
2003   10   29    6    3   33     -176.220       -9.880     -113.082
2003   10   29    6    4   33     -323.599      -27.845      169.648
2003   10   29    6    5   33     -324.886        0.176      114.695
2003   10   29    6    6   33     -435.459       26.203      165.942
2003   10   29    6    7   33     -458.316      -43.869      308.893
2003   10   29    6    8   33     -376.890      -33.063      430.172
2003   10   29    6    9   33     -232.918      -48.418      527.386
2003   10   29    6   10   33     -186.154      -29.550      525.379
2003   10   29    6   11   33       96.874      -74.126     1004.700
2003   10   29    6   12   33      121.532      -86.898     1122.730
2003   10   29    6   13   33      -60.702     -142.386      995.426
2003   10   29    6   14   33     -249.208     -142.638      921.019
2003   10   29    6   15   33     -416.612     -139.102      829.077
2003   10   29    6   16   33     -432.403     -355.428     1419.870
2003   10   29    6   17   33        9.214     -177.244     1685.240
2003   10   29    6   18   33      153.546     -231.838     1684.610
2003   10   29    6   19   33     -128.806     -212.424     1788.270
2003   10   29    6   20   33     -490.932     -164.951     1748.770
2003   10   29    6   21   33     -376.570     -114.698     1869.840
2003   10   29    6   22   33     -866.222      -10.679     1704.970
2003   10   29    6   23   33    -1067.560       18.945     1523.370
2003   10   29    6   24   33    -1229.200       21.643     1333.390
2003   10   29    6   25   33    -1223.940       -9.913     1321.640
2003   10   29    6   26   33    -1149.510       35.254     1357.190
2003   10   29    6   27   33    -1257.260       72.683     1208.460
2003   10   29    6   28   33    -1304.760       94.651     1094.140
2003   10   29    6   29   33    -1360.430       89.784      974.730
2003   10   29    6   30   33    -1372.600       41.313      900.049
2003   10   29    6   31   33    -1386.530      -15.069      780.112
2003   10   29    6   32   33    -1325.030      -81.847      925.164
2003   10   29    6   33   33    -1208.270       55.610     1162.780
2003   10   29    6   34   33    -1044.290      -31.539     1354.990
2003   10   29    6   35   33    -1028.560     -156.232     1598.910
2003   10   29    6   36   33     -645.979      -63.895     1674.580
2003   10   29    6   37   33     -449.328      -97.076     1742.430
2003   10   29    6   38   33     -379.663     -134.299     1796.010
2003   10   29    6   39   33     -400.438      -23.581     1911.840
2003   10   29    6   40   33     -670.004       24.127     1931.920
2003   10   29    6   41   33     -798.479       98.525     1854.830
2003   10   29    6   42   33     -976.345      -34.047     1366.560
2003   10   29    6   43   33     -962.427       99.131     1381.420
2003   10   29    6   44   33       31.809     -254.865     1975.180
2003   10   29    6   45   33      401.143       14.030     2372.500
2003   10   29    6   46   33      456.920       10.380     2480.090
2003   10   29    6   47   33      450.613      -33.765     2587.350
2003   10   29    6   48   33      977.612       55.602     2753.930
2003   10   29    6   49   33      346.502      262.683     2753.180
2003   10   29    6   50   33      -21.216      834.484     2235.910
2003   10   29    6   51   33       -7.951      998.821      927.495
2003   10   29    6   52   33      454.485      802.750      669.470
2003   10   29    6   53   33     -258.948      821.515      631.547
2003   10   29    6   54   33     -387.244      878.114     1094.530
2003   10   29    6   55   33     -170.337      912.820     1031.560
2003   10   29    6   56   33      753.788      957.518     1187.830
2003   10   29    6   57   33      375.795     1177.540     1208.320
2003   10   29    6   58   33      983.312     1100.040      819.058
2003   10   29    6   59   33      751.311      808.826      899.439
2003   10   29    7    0   33     1240.820      480.731     -170.183
2003   10   29    7    1   33      908.270      173.426      455.717
2003   10   29    7    2   33      505.341      117.061      602.751
2003   10   29    7    3   33      463.284       58.760      574.669
2003   10   29    7    4   33      333.515      -40.896      684.322
2003   10   29    7    5   33      299.619        4.158      834.831
2003   10   29    7    6   33      355.176      141.869      978.592
2003   10   29    7    7   33      398.481       79.489      893.280
2003   10   29    7    8   33      396.450      155.418      890.995
2003   10   29    7    9   33      411.674      230.239      882.504
2003   10   29    7   10   33      353.925      227.174      972.538
2003   10   29    7   11   33      439.325      185.920     1148.520
2003   10   29    7   12   33      519.078      245.926     1211.200
2003   10   29    7   13   33      526.527      171.019     1208.840
2003   10   29    7   14   33      346.653      202.386     1368.200
2003   10   29    7   15   33     1137.250      356.319     1275.920
2003   10   29    7   16   33     1357.250      135.019      909.172
2003   10   29    7   17   33     1254.280      179.061     1059.050
2003   10   29    7   18   33     1323.060      233.725      872.579
2003   10   29    7   19   33     1162.460      122.578      976.870
2003   10   29    7   20   33     1090.400      196.664      979.728
2003   10   29    7   21   33      954.560      159.111     1021.820
2003   10   29    7   22   33      998.391      148.157     1166.350
2003   10   29    7   23   33     1027.240      263.312     1094.430
2003   10   29    7   24   33      995.357      183.239     1018.790
2003   10   29    7   25   33     1100.060      167.505      989.974
2003   10   29    7   26   33     1019.530      135.069      999.035
2003   10   29    7   27   33      948.118      150.983      904.872
2003   10   29    7   28   33      841.704      194.125      796.258
2003   10   29    7   29   33      927.608      128.290     1026.560
2003   10   29    7   30   33     1064.100      251.849     1039.250
2003   10   29    7   31   33     1093.090      217.981     1011.240
2003   10   29    7   32   33     1085.890      225.590      910.303
2003   10   29    7   33   33     1009.130      189.558      829.934
2003   10   29    7   34   33     1013.180      162.709      693.255
2003   10   29    7   35   33      835.411      264.021      547.479
2003   10   29    7   36   33      767.521      102.466      449.493
2003   10   29    7   37   33      760.742      272.153      669.118
2003   10   29    7   38   33      598.269      117.263      565.619
2003   10   29    7   39   33      539.066       38.310      547.674
2003   10   29    7   40   33      453.806       92.748      657.087
2003   10   29    7   41   33      432.169      112.284      640.424
2003   10   29    7   42   33      410.218       53.237      563.154
2003   10   29    7   43   33      310.754      121.796      568.646
2003   10   29    7   44   33      263.016      124.954      502.404
2003   10   29    7   45   33      102.276      208.774      398.169
2003   10   29    7   46   33       26.936      210.183      326.185
2003   10   29    7   47   33       35.852      205.964      347.609
2003   10   29    7   48   33       97.517      132.567      459.803
2003   10   29    7   49   33      125.787      146.803      502.509
2003   10   29    7   50   33       67.537      177.530      362.301
2003   10   29    7   51   33       24.022      149.781      270.805
2003   10   29    7   52   33      -10.556      120.434      209.260
2003   10   29    7   53   33      -63.341      122.967      180.931
2003   10   29    7   54   33     -110.654      135.656      166.446
2003   10   29    7   55   33      -55.864      222.277      308.846
2003   10   29    7   56   33        1.920      280.261      415.844
2003   10   29    7   57   33       21.464      275.272      476.527
2003   10   29    7   58   33       10.727      254.754      482.846
2003   10   29    7   59   33      -39.765       90.678      271.643
2003   10   29    8    0   33     -137.402       -6.690      154.969
2003   10   29    8    1   33     -144.735        2.593      126.814
2003   10   29    8    2   33     -221.392       64.540       53.439
2003   10   29    8    3   33     -256.294       94.735      125.554
2003   10   29    8    4   33     -285.798       98.780      125.173
2003   10   29    8    5   33     -267.948      167.886      168.981
2003   10   29    8    6   33     -267.180      257.286      288.111
2003   10   29    8    7   33     -241.497      448.174      428.433
2003   10   29    8    8   33      -38.690      572.334      773.735
2003   10   29    8    9   33       17.150      484.536      956.558
2003   10   29    8   10   33       10.968      450.384      924.902
2003   10   29    8   11   33     -103.622      566.422      908.511
2003   10   29    8   12   33     -107.063      512.742      962.595
2003   10   29    8   13   33     -296.382      579.202      998.093
2003   10   29    8   14   33     -330.527      597.035     1023.830
2003   10   29    8   15   33     -357.771      658.497     1027.610
2003   10   29    8   16   33     -366.093      623.288     1066.210
2003   10   29    8   17   33     -387.831      686.190     1018.520
2003   10   29    8   18   33     -243.709      642.071      922.592
2003   10   29    8   19   33      -73.807      606.146      936.861
2003   10   29    8   20   33      -91.244      532.463      984.167
2003   10   29    8   21   33     -114.285      560.905      971.908
2003   10   29    8   22   33      -78.673      485.972      961.023
2003   10   29    8   23   33      -91.026      507.087      891.954
2003   10   29    8   24   33      -23.776      547.238      861.845
2003   10   29    8   25   33       48.238      567.678      858.410
2003   10   29    8   26   33       94.191      543.460      844.131
2003   10   29    8   27   33       77.197      550.769      847.113
2003   10   29    8   28   33       47.234      555.193      837.311
2003   10   29    8   29   33        8.518      577.116      841.449
2003   10   29    8   30   33       -7.635      567.355      848.424
2003   10   29    8   31   33      -54.393      552.144      860.266
2003   10   29    8   32   33      -88.329      603.845      817.382
2003   10   29    8   33   33      -55.058      564.020      782.574
2003   10   29    8   34   33      -49.631      565.627      769.157
2003   10   29    8   35   33        0.673      536.640      758.089
2003   10   29    8   36   33       35.972      528.878      747.096
2003   10   29    8   37   33       38.636      572.732      740.846
2003   10   29    8   38   33       61.239      534.991      773.544
2003   10   29    8   39   33       31.066      582.742      773.565
2003   10   29    8   40   33       63.621      574.464      783.913
2003   10   29    8   41   33       56.077      556.648      811.098
2003   10   29    8   42   33       43.078      569.032      806.723
2003   10   29    8   43   33       51.248      612.163      762.282
2003   10   29    8   44   33       74.659      698.329      676.139
2003   10   29    8   45   33       87.084      635.222      743.597
2003   10   29    8   46   33      -86.364      552.316      828.921
2003   10   29    8   47   33      -63.108      550.227      818.130
2003   10   29    8   48   33      -49.638      520.127      467.917
2003   10   29    8   49   33      -49.181      665.768     -430.024
2003   10   29    8   50   33       74.580      475.248     -744.867
2003   10   29    8   51   33      181.293      492.270     -758.334
2003   10   29    8   52   33      245.450      632.529     -483.699
2003   10   29    8   53   33      170.694      605.063     -445.121
2003   10   29    8   54   33      261.569      672.763     -289.763
2003   10   29    8   55   33      333.263      738.183      -56.438
2003   10   29    8   56   33      346.359      882.591      -74.951
2003   10   29    8   57   33      428.993      682.013      432.338
2003   10   29    8   58   33      157.916      606.937      822.321
2003   10   29    8   59   33     -115.292      388.287      993.848
2003   10   29    9    0   33     -381.520      466.700      928.056
2003   10   29    9    1   33     -430.404      350.834      843.732
2003   10   29    9    2   33     -514.304      379.377      778.373
2003   10   29    9    3   33     -502.321      334.113      753.206
2003   10   29    9    4   33     -485.391      303.003      728.872
2003   10   29    9    5   33     -506.109      259.557      708.825
2003   10   29    9    6   33     -496.213      265.520      690.654
2003   10   29    9    7   33     -477.466      253.641      671.587
2003   10   29    9    8   33     -473.515      272.950      664.852
2003   10   29    9    9   33     -496.637      282.140      647.573
2003   10   29    9   10   33     -501.528      272.422      647.542
2003   10   29    9   11   33     -545.178      277.730      621.921
2003   10   29    9   12   33     -527.393      347.209      581.435
2003   10   29    9   13   33     -438.344      305.788      576.429
2003   10   29    9   14   33     -513.670      378.766      526.542
2003   10   29    9   15   33     -541.516      270.839      536.932
2003   10   29    9   16   33     -578.861      211.465      548.456
2003   10   29    9   17   33     -644.565      229.622      524.111
2003   10   29    9   18   33     -577.487      212.010      495.394
2003   10   29    9   19   33     -582.657      164.924      370.268
2003   10   29    9   20   33     -588.027      180.604      402.412
2003   10   29    9   21   33     -444.191      251.572      240.096
2003   10   29    9   22   33     -372.362      330.065       52.124
2003   10   29    9   23   33     -317.999      339.279      152.316
2003   10   29    9   24   33     -356.351      300.132      198.496
2003   10   29    9   25   33     -297.034      276.367       25.317
2003   10   29    9   26   33     -424.156      217.942      220.690
2003   10   29    9   27   33     -342.902      195.522      166.674
2003   10   29    9   28   33     -198.640      175.858        8.979
2003   10   29    9   29   33     -115.449      146.426      -81.836
2003   10   29    9   30   33      -72.958      176.417     -140.483
2003   10   29    9   31   33        2.638      144.494     -127.904
2003   10   29    9   32   33       45.163      136.151     -120.193
2003   10   29    9   33   33       -1.159      146.183      -57.228
2003   10   29    9   34   33      -14.825      172.495      -67.190
2003   10   29    9   35   33      -72.789      205.983        8.811
2003   10   29    9   36   33     -169.737      191.221      101.897
2003   10   29    9   37   33     -210.095      146.930      167.361
2003   10   29    9   38   33     -250.039      125.645      191.894
2003   10   29    9   39   33     -282.430      112.714      195.494
2003   10   29    9   40   33     -245.865       82.345      161.066
2003   10   29    9   41   33     -218.277       82.498       96.823
2003   10   29    9   42   33     -268.239       57.865      123.240
2003   10   29    9   43   33     -193.414       -0.211       49.240
2003   10   29    9   44   33     -208.637      -20.240       -2.184
2003   10   29    9   45   33     -284.551      -46.690       19.328
2003   10   29    9   46   33     -300.003      -89.937       53.722
2003   10   29    9   47   33     -316.315      -94.096       70.483
2003   10   29    9   48   33     -310.305      -96.184       73.485
2003   10   29    9   49   33     -325.968      -89.079       73.126
2003   10   29    9   50   33     -342.832     -122.766       72.247
2003   10   29    9   51   33     -336.587     -126.662       54.624
2003   10   29    9   52   33     -349.597      -94.904       39.692
2003   10   29    9   53   33     -347.685      -93.000       51.466
2003   10   29    9   54   33     -347.043      -86.742       54.901
2003   10   29    9   55   33     -326.665      -63.513       26.923
2003   10   29    9   56   33     -256.684      -44.311      -15.304
2003   10   29    9   57   33     -234.226      -32.865      -37.848
2003   10   29    9   58   33     -288.104      -69.046       35.235
2003   10   29    9   59   33     -292.394      -82.084      112.110
2003   10   29   10    0   33     -313.601      -83.210      172.323
2003   10   29   10    1   33     -294.170      -54.360      142.493
2003   10   29   10    2   33     -276.449      -52.336       93.036
2003   10   29   10    3   33     -241.428      -75.465       99.306
2003   10   29   10    4   33     -212.272      -93.260       93.982
2003   10   29   10    5   33     -210.728      -68.021       92.092
2003   10   29   10    6   33     -200.190      -68.515       61.342
2003   10   29   10    7   33     -128.810      -55.290       57.841
2003   10   29   10    8   33     -102.706      -40.354       75.464
2003   10   29   10    9   33     -101.127      -58.085      103.735
2003   10   29   10   10   33     -113.314      -50.546      114.349
2003   10   29   10   11   33     -115.952      -40.495      123.856
2003   10   29   10   12   33      -85.591      -46.312       98.643
2003   10   29   10   13   33      -21.098      -42.298       74.465
2003   10   29   10   14   33       22.129      -24.128       64.444
2003   10   29   10   15   33       26.628      -16.797       68.997
2003   10   29   10   16   33       62.334      -16.122       63.770
2003   10   29   10   17   33       88.945      -14.054       71.457
2003   10   29   10   18   33      108.371       -0.175       87.792
2003   10   29   10   19   33      144.840       -2.579       81.436
2003   10   29   10   20   33      188.615       12.629       72.004
2003   10   29   10   21   33      296.984       41.966       13.037
2003   10   29   10   22   33      385.855       62.283      -82.626
2003   10   29   10   23   33      439.390       28.840     -152.373
2003   10   29   10   24   33      574.149       29.130     -174.192
2003   10   29   10   25   33      716.841        5.753     -167.357
2003   10   29   10   26   33      759.089       -7.386     -123.045
2003   10   29   10   27   33      683.100      -32.825     -100.555
2003   10   29   10   28   33      428.252      -41.202     -446.015
2003   10   29   10   29   33      205.033      335.272      182.055
2003   10   29   10   30   33        6.035      244.361      411.954
2003   10   29   10   31   33     -213.302      206.363      336.025
2003   10   29   10   32   33     -349.282      125.377      338.710
2003   10   29   10   33   33     -434.058      110.135      175.188
2003   10   29   10   34   33     -476.098       66.507      180.379
2003   10   29   10   35   33     -408.289        7.602      110.218
2003   10   29   10   36   33     -213.528       11.140        5.640
2003   10   29   10   37   33     -291.146      -22.777       25.928
2003   10   29   10   38   33     -251.561      -29.768        2.745
2003   10   29   10   39   33     -278.645        0.724       62.832
2003   10   29   10   40   33     -361.614      -13.080      104.629
2003   10   29   10   41   33     -363.263      -48.776       96.697
2003   10   29   10   42   33     -362.346      -93.259       62.852
2003   10   29   10   43   33     -305.285     -128.428      -28.885
2003   10   29   10   44   33     -224.704      -91.722      -80.430
2003   10   29   10   45   33     -184.335      -48.767      -70.523
2003   10   29   10   46   33     -161.019      -23.909      -70.621
2003   10   29   10   47   33     -144.171      -11.084      -81.903
2003   10   29   10   48   33     -103.002       -6.188     -101.577
2003   10   29   10   49   33     -130.354       51.238      -41.582
2003   10   29   10   50   33     -214.438       33.946        5.727
2003   10   29   10   51   33     -238.179       -2.055       -9.267
2003   10   29   10   52   33     -223.885       12.711       12.800
2003   10   29   10   53   33     -264.519      -22.738       32.881
2003   10   29   10   54   33     -308.289      -42.541       -4.529
2003   10   29   10   55   33     -344.696      -39.619      -31.717
2003   10   29   10   56   33     -330.196      -19.923      -47.314
2003   10   29   10   57   33     -314.300      -13.248      -54.557
2003   10   29   10   58   33     -283.918      -36.350      -62.733
2003   10   29   10   59   33     -194.939      -34.687      -69.288
2003   10   29   11    0   33      -89.828       -8.980     -110.846
2003   10   29   11    1   33      -46.148       -8.854     -101.039
2003   10   29   11    2   33      -12.872       15.216     -113.346
2003   10   29   11    3   33       24.240       33.678     -221.385
2003   10   29   11    4   33       86.981       78.423     -290.635
2003   10   29   11    5   33      149.209      118.680     -215.163
2003   10   29   11    6   33      151.560      100.443     -226.174
2003   10   29   11    7   33       86.343      107.488     -211.310
2003   10   29   11    8   33       29.477       93.555     -253.246
2003   10   29   11    9   33      -42.770      112.878     -255.424
2003   10   29   11   10   33      -44.394      123.848     -207.457
2003   10   29   11   11   33      -25.377      111.093     -173.374
2003   10   29   11   12   33      -65.097       83.026     -202.409
2003   10   29   11   13   33      -69.230      107.149     -181.090
2003   10   29   11   14   33      -28.836       91.520     -162.350
2003   10   29   11   15   33      -87.188       97.404     -115.856
2003   10   29   11   16   33     -146.210       54.933     -116.711
2003   10   29   11   17   33     -154.834       45.340     -151.306
2003   10   29   11   18   33     -161.730       28.862     -201.320
2003   10   29   11   19   33     -171.093       21.335     -252.166
2003   10   29   11   20   33     -150.649       38.344     -240.811
2003   10   29   11   21   33      -80.581       -1.056     -294.761
2003   10   29   11   22   33      -54.095       -1.212     -323.332
2003   10   29   11   23   33     -104.853       11.501     -285.671
2003   10   29   11   24   33     -196.572      115.641     -180.634
2003   10   29   11   25   33      -32.705      114.055     -273.582
2003   10   29   11   26   33     -188.210       78.137      -98.275
2003   10   29   11   27   33     -217.555       68.170      -31.545
2003   10   29   11   28   33     -192.267       73.011       21.991
2003   10   29   11   29   33     -220.215       83.077      121.962
2003   10   29   11   30   33     -252.418      119.460      193.973
2003   10   29   11   31   33     -329.556      125.690      143.162
2003   10   29   11   32   33     -299.314      132.173      179.050
2003   10   29   11   33   33     -211.330      142.388      192.341
2003   10   29   11   34   33     -260.405      137.601      172.441
2003   10   29   11   35   33     -363.096      123.050      293.197
2003   10   29   11   36   33     -487.193       51.193      326.930
2003   10   29   11   37   33     -594.757      -46.837      223.890
2003   10   29   11   38   33     -656.878        5.962       61.718
2003   10   29   11   39   33     -605.277       24.387      112.354
2003   10   29   11   40   33     -541.525      -49.166       25.452
2003   10   29   11   41   33     -466.119       36.907       13.223
2003   10   29   11   42   33     -385.109      -36.645       -2.527
2003   10   29   11   43   33     -308.056        4.109      -43.877
2003   10   29   11   44   33     -205.120       30.296      -35.819
2003   10   29   11   45   33     -181.442       33.371      -15.882
2003   10   29   11   46   33     -171.036       32.209       -7.816
2003   10   29   11   47   33     -181.715       34.346      -29.537
2003   10   29   11   48   33     -190.340       29.505      -43.509
2003   10   29   11   49   33     -192.527       25.855      -61.091
2003   10   29   11   50   33     -207.727       17.510      -80.109
2003   10   29   11   51   33     -207.660        8.844      -89.566
2003   10   29   11   52   33     -197.905        0.807      -97.903
2003   10   29   11   53   33     -182.380       -1.147     -103.751
2003   10   29   11   54   33     -176.836       -0.547     -116.175
2003   10   29   11   55   33     -149.955        2.183     -111.213
2003   10   29   11   56   33     -119.457        2.140     -110.088
2003   10   29   11   57   33     -140.918      -15.389     -125.477
2003   10   29   11   58   33     -126.789      -18.214     -141.075
2003   10   29   11   59   33     -115.902      -18.068     -152.262
2003   10   29   12    0   33     -104.614      -14.607     -158.208
2003   10   29   12    1   33     -104.254      -13.758     -162.316
2003   10   29   12    2   33      -72.144       -9.242     -146.042
2003   10   29   12    3   33      -85.349      -22.588     -126.951
2003   10   29   12    4   33      -93.038      -17.774     -119.792
2003   10   29   12    5   33      -89.573      -14.953     -109.577
2003   10   29   12    6   33      -27.325       -3.709      -92.280
2003   10   29   12    7   33       61.867       17.534      -50.289
2003   10   29   12    8   33      134.181       10.740      -17.147
2003   10   29   12    9   33      134.051       32.318      -11.200
2003   10   29   12   10   33      231.875       46.161       14.044
2003   10   29   12   11   33      231.125       44.571        3.793
2003   10   29   12   12   33      280.140       58.528      -10.220
2003   10   29   12   13   33      315.819       77.651      -24.424
2003   10   29   12   14   33      317.042       80.948      -70.134
2003   10   29   12   15   33      251.130       81.008      -96.246
2003   10   29   12   16   33      207.246      127.132      -14.361
2003   10   29   12   17   33      314.452      176.937      -16.717
2003   10   29   12   18   33      382.726      164.989      -79.888
2003   10   29   12   19   33      396.929      172.294     -109.637
2003   10   29   12   20   33      403.602      183.966     -118.084
2003   10   29   12   21   33      394.906      201.729     -144.687
2003   10   29   12   22   33      390.796      218.864     -182.672
2003   10   29   12   23   33      328.152      214.953     -181.837
2003   10   29   12   24   33      373.901      180.906     -240.289
2003   10   29   12   25   33      385.078      162.428     -255.123
2003   10   29   12   26   33      445.985      143.416     -251.683
2003   10   29   12   27   33      427.590      126.848     -211.785
2003   10   29   12   28   33      316.936      114.888     -161.238
2003   10   29   12   29   33      317.594      103.450     -181.052
2003   10   29   12   30   33      305.251      107.923     -218.903
2003   10   29   12   31   33      290.476      124.588     -245.241
2003   10   29   12   32   33      365.251      159.576     -275.065
2003   10   29   12   33   33      374.180      137.591     -234.248
2003   10   29   12   34   33      325.427      140.614     -159.267
2003   10   29   12   35   33      279.525      209.263     -176.947
2003   10   29   12   36   33      277.397      193.459     -268.171
2003   10   29   12   37   33      233.704      167.163     -298.961
2003   10   29   12   38   33      174.798      224.674     -182.241
2003   10   29   12   39   33      124.907      212.111     -160.110
2003   10   29   12   40   33      139.357      230.961     -185.196
2003   10   29   12   41   33      112.920      214.207     -130.199
2003   10   29   12   42   33       90.553      194.849      -99.001
2003   10   29   12   43   33       50.165      216.830      -96.992
2003   10   29   12   44   33       38.445      202.450     -137.559
2003   10   29   12   45   33       38.375      185.589     -152.444
2003   10   29   12   46   33       17.311      221.179      -68.036
2003   10   29   12   47   33      -25.640      204.742      -34.592
2003   10   29   12   48   33      -41.233      195.873      -70.977
2003   10   29   12   49   33      -20.491      197.147     -102.091
2003   10   29   12   50   33      -46.651      195.103      -83.503
2003   10   29   12   51   33      -59.032      171.666      -85.803
2003   10   29   12   52   33      -54.602      131.923      -69.439
2003   10   29   12   53   33      -37.393      103.901      -59.289
2003   10   29   12   54   33        7.777       85.735      -58.991
2003   10   29   12   55   33       18.633       55.955      -53.298
2003   10   29   12   56   33       50.847       54.687      -36.637
2003   10   29   12   57   33       65.903       68.830      -16.514
2003   10   29   12   58   33       60.350       91.923       -8.432
2003   10   29   12   59   33       79.776      105.204       20.853
2003   10   29   13    0   33       76.192      121.434       48.203
2003   10   29   13    1   33       42.826      138.487       61.304
2003   10   29   13    2   33       15.657      146.062       73.031
2003   10   29   13    3   33       -2.690      127.090       90.347
2003   10   29   13    4   33       -4.049       99.501       86.197
2003   10   29   13    5   33       16.776       78.765       90.273
2003   10   29   13    6   33       22.996       49.819       96.201
2003   10   29   13    7   33       23.213       25.383       87.403
2003   10   29   13    8   33       -8.895       20.256       53.544
2003   10   29   13    9   33       11.794       33.194       13.726
2003   10   29   13   10   33       20.178       38.230       -2.320
2003   10   29   13   11   33       30.195       45.633      -16.130
2003   10   29   13   12   33       36.388       51.310      -25.916
2003   10   29   13   13   33       40.443       49.200      -39.152
2003   10   29   13   14   33       80.061       73.024      -29.664
2003   10   29   13   15   33       65.778       76.983      -28.143
2003   10   29   13   16   33       47.012       71.428      -48.203
2003   10   29   13   17   33       21.680       71.754      -50.068
2003   10   29   13   18   33      -20.085       63.345      -67.758
2003   10   29   13   19   33      -41.348       49.422      -93.313
2003   10   29   13   20   33      -19.317       56.835     -145.428
2003   10   29   13   21   33      -65.301       62.412     -163.157
2003   10   29   13   22   33      -20.780       67.220     -147.710
2003   10   29   13   23   33      -21.638       40.652     -113.128
2003   10   29   13   24   33       -2.416       32.874      -75.434
2003   10   29   13   25   33        5.970       29.887      -49.168
2003   10   29   13   26   33       -5.651       21.118       -0.101
2003   10   29   13   27   33      -30.014       17.919       24.690
2003   10   29   13   28   33      -72.526       14.998       32.051
2003   10   29   13   29   33     -113.637        6.286       38.394
2003   10   29   13   30   33     -165.833       -7.295       74.073
2003   10   29   13   31   33     -189.333      -12.485      102.896
2003   10   29   13   32   33     -220.609      -21.587      133.494
2003   10   29   13   33   33     -243.701      -27.816      141.986
2003   10   29   13   34   33     -237.805      -19.216      144.916
2003   10   29   13   35   33     -231.783      -18.080      148.166
2003   10   29   13   36   33     -214.687      -22.427      151.802
2003   10   29   13   37   33     -237.005      -28.374      186.664
2003   10   29   13   38   33     -278.671      -50.776      182.684
2003   10   29   13   39   33     -273.123      -36.840      103.357
2003   10   29   13   40   33     -275.330      -42.121       63.465
2003   10   29   13   41   33     -233.080      -47.896       28.296
2003   10   29   13   42   33     -141.709      -26.985        2.782
2003   10   29   13   43   33      -58.493      -14.758       -7.780
2003   10   29   13   44   33      -14.112       -8.352       -2.617
2003   10   29   13   45   33      -23.882       -6.944       21.966
2003   10   29   13   46   33      -94.684       -1.203       48.361
2003   10   29   13   47   33     -111.012        8.240       51.688
2003   10   29   13   48   33     -134.377        4.166       75.555
2003   10   29   13   49   33     -108.024       -4.468       27.332
2003   10   29   13   50   33      -91.933      -29.061        5.649
2003   10   29   13   51   33      -67.570      -51.534      -18.097
2003   10   29   13   52   33      -36.965      -63.683      -44.512
2003   10   29   13   53   33      -18.010      -67.857      -67.724
2003   10   29   13   54   33      -12.743      -68.380      -87.451
2003   10   29   13   55   33      -13.594      -59.499     -104.334
2003   10   29   13   56   33      -15.846      -45.589     -119.956
2003   10   29   13   57   33      -15.107      -35.898     -121.626
2003   10   29   13   58   33      -27.339      -30.914     -131.496
2003   10   29   13   59   33      -28.715      -22.713     -136.555
2003   10   29   14    0   33      -34.395      -25.891     -132.377
2003   10   29   14    1   33       -9.697      -18.114     -127.575
2003   10   29   14    2   33       -0.512      -16.858     -136.946
2003   10   29   14    3   33       -6.089        1.111     -143.318
2003   10   29   14    4   33       -2.890       -9.250     -120.036
2003   10   29   14    5   33       -1.806      -14.662     -112.378
2003   10   29   14    6   33       12.135      -19.634     -118.410
2003   10   29   14    7   33        0.919      -20.943     -109.403
2003   10   29   14    8   33      -13.728      -30.657     -108.531
2003   10   29   14    9   33      -20.630      -39.402     -119.840
2003   10   29   14   10   33      -34.325      -46.186     -133.796
2003   10   29   14   11   33      -52.072      -50.759     -152.753
2003   10   29   14   12   33      -57.273      -47.867     -165.723
2003   10   29   14   13   33      -75.453      -45.972     -160.657
2003   10   29   14   14   33     -102.133      -43.289     -145.413
2003   10   29   14   15   33     -135.684      -45.646     -129.864
2003   10   29   14   16   33     -155.796      -48.581     -122.921
2003   10   29   14   17   33     -167.291      -49.094     -127.855
2003   10   29   14   18   33     -193.261      -56.757     -109.202
2003   10   29   14   19   33     -223.241      -79.217      -88.714
2003   10   29   14   20   33     -241.147     -105.559     -100.532
2003   10   29   14   21   33     -246.338     -118.971     -144.262
2003   10   29   14   22   33     -223.476     -118.609     -157.701
2003   10   29   14   23   33     -210.955     -113.581     -117.586
2003   10   29   14   24   33     -211.863     -108.995      -75.438
2003   10   29   14   25   33     -216.090     -100.125      -66.007
2003   10   29   14   26   33     -212.570      -85.501      -74.946
2003   10   29   14   27   33     -206.105      -61.380      -78.803
2003   10   29   14   28   33     -196.492      -44.782      -50.886
2003   10   29   14   29   33     -191.849      -38.808      -56.146
2003   10   29   14   30   33     -173.820      -24.184      -84.562
2003   10   29   14   31   33     -165.451      -33.309      -94.505
2003   10   29   14   32   33     -176.652      -53.284     -100.394
2003   10   29   14   33   33     -208.774      -72.002      -95.317
2003   10   29   14   34   33     -225.514      -81.614     -100.067
2003   10   29   14   35   33     -241.404      -87.588      -97.577
2003   10   29   14   36   33     -244.129      -87.627     -110.208
2003   10   29   14   37   33     -255.069      -94.032     -119.541
2003   10   29   14   38   33     -273.057     -101.653     -116.184
2003   10   29   14   39   33     -280.844      -94.587     -117.895
2003   10   29   14   40   33     -284.851      -86.284     -125.116
2003   10   29   14   41   33     -287.137      -77.429     -127.999
2003   10   29   14   42   33     -285.752      -71.778     -122.432
2003   10   29   14   43   33     -283.373      -62.601     -130.121
2003   10   29   14   44   33     -288.114      -58.466     -139.743
2003   10   29   14   45   33     -294.718      -55.181     -155.031
2003   10   29   14   46   33     -299.978      -59.488     -168.844
2003   10   29   14   47   33     -289.013      -61.711     -219.703
2003   10   29   14   48   33     -222.351      -41.945     -288.658
2003   10   29   14   49   33     -191.367      -20.884     -304.650
2003   10   29   14   50   33     -192.866      -42.654     -244.998
2003   10   29   14   51   33     -227.745      -71.243     -159.689
2003   10   29   14   52   33     -210.935      -86.584     -122.126
2003   10   29   14   53   33     -240.191     -101.986      -59.239
2003   10   29   14   54   33     -270.991     -121.879      -18.400
2003   10   29   14   55   33     -316.169     -143.465       -7.032
2003   10   29   14   56   33     -335.547     -151.990      -21.649
2003   10   29   14   57   33     -329.927     -150.707      -30.208
2003   10   29   14   58   33     -351.808     -157.441       -2.162
2003   10   29   14   59   33     -344.460     -159.153       -2.256
2003   10   29   15    0   33     -326.690     -154.652       -0.608
2003   10   29   15    1   33     -316.759     -156.136       14.477
2003   10   29   15    2   33     -300.081     -170.757       13.368
2003   10   29   15    3   33     -302.725     -193.214       20.409
2003   10   29   15    4   33     -296.271     -208.793       20.222
2003   10   29   15    5   33     -292.044     -213.949       19.662
2003   10   29   15    6   33     -289.794     -222.432       26.865
2003   10   29   15    7   33     -281.328     -214.540       38.627
2003   10   29   15    8   33     -266.467     -183.582       45.834
2003   10   29   15    9   33     -267.032     -181.997       67.100
2003   10   29   15   10   33     -267.765     -181.425       68.073
2003   10   29   15   11   33     -277.341     -172.861       61.960
2003   10   29   15   12   33     -299.447     -170.593       55.278
2003   10   29   15   13   33     -299.100     -156.370        2.297
2003   10   29   15   14   33     -313.514     -141.473      -43.100
2003   10   29   15   15   33     -350.367      -95.779      -55.006
2003   10   29   15   16   33     -382.633        9.939      -90.973
2003   10   29   15   17   33     -345.369       42.221     -123.817
2003   10   29   15   18   33     -370.044       28.118     -120.493
2003   10   29   15   19   33     -443.177      157.164      -30.044
2003   10   29   15   20   33     -391.267      234.236     -210.118
2003   10   29   15   21   33     -297.780      219.370     -420.212
2003   10   29   15   22   33     -364.407      267.134     -589.093
2003   10   29   15   23   33     -396.454      216.468     -783.552
2003   10   29   15   24   33     -315.083       79.006     -866.247
2003   10   29   15   25   33     -325.907        4.878     -862.559
2003   10   29   15   26   33     -252.662      -15.526     -820.315
2003   10   29   15   27   33     -244.711      -66.633     -795.236
2003   10   29   15   28   33     -309.568     -130.210     -741.275
2003   10   29   15   29   33     -262.466     -155.854     -775.344
2003   10   29   15   30   33     -237.131     -209.223     -822.895
2003   10   29   15   31   33     -340.478     -329.814     -823.410
2003   10   29   15   32   33     -334.317     -350.855     -774.471
2003   10   29   15   33   33     -350.694     -341.262     -734.896
2003   10   29   15   34   33     -205.450     -242.125     -700.475
2003   10   29   15   35   33     -198.176     -152.698     -734.539
2003   10   29   15   36   33     -249.828     -176.160     -818.062
2003   10   29   15   37   33     -212.685     -348.650     -809.327
2003   10   29   15   38   33     -244.651     -466.901     -632.897
2003   10   29   15   39   33     -311.427     -283.115     -635.774
2003   10   29   15   40   33     -205.895     -146.656     -650.636
2003   10   29   15   41   33     -227.716      -89.605     -707.320
2003   10   29   15   42   33     -179.620     -105.011     -710.420
2003   10   29   15   43   33     -237.699     -189.181     -687.706
2003   10   29   15   44   33     -246.104     -159.972     -723.857
2003   10   29   15   45   33     -233.198     -131.825     -753.267
2003   10   29   15   46   33     -190.544      -98.207     -716.545
2003   10   29   15   47   33     -193.490      -30.935     -699.873
2003   10   29   15   48   33     -151.663       66.006     -666.762
2003   10   29   15   49   33     -169.938       96.517     -623.555
2003   10   29   15   50   33     -167.497       96.869     -580.027
2003   10   29   15   51   33     -146.999      121.639     -582.635
2003   10   29   15   52   33     -141.868      141.822     -617.789
2003   10   29   15   53   33     -181.148      117.007     -617.785
2003   10   29   15   54   33     -126.333       81.662     -685.498
2003   10   29   15   55   33      -88.735      136.701     -709.200
2003   10   29   15   56   33      -88.703      176.486     -633.725
2003   10   29   15   57   33     -151.497      164.089     -515.761
2003   10   29   15   58   33     -150.107      170.674     -430.211
2003   10   29   15   59   33     -140.243      178.438     -360.347
2003   10   29   16    0   33     -180.377      194.607     -293.970
2003   10   29   16    1   33     -169.401      198.123     -263.846
2003   10   29   16    2   33     -133.725      217.879     -250.651
2003   10   29   16    3   33     -165.227      222.882     -228.378
2003   10   29   16    4   33     -166.201      226.657     -219.321
2003   10   29   16    5   33     -166.324      209.149     -207.615
2003   10   29   16    6   33     -147.876      182.566     -210.558
2003   10   29   16    7   33     -146.526      169.461     -186.845
2003   10   29   16    8   33     -178.676      155.470     -140.855
2003   10   29   16    9   33     -167.884      151.156     -133.416
2003   10   29   16   10   33     -191.971      147.186      -99.843
2003   10   29   16   11   33     -216.161      139.168      -57.573
2003   10   29   16   12   33     -254.653      138.315        9.823
2003   10   29   16   13   33     -250.716      147.013        2.653
2003   10   29   16   14   33     -253.975      158.790      -19.689
2003   10   29   16   15   33     -288.633      168.369       -9.844
2003   10   29   16   16   33     -231.489      202.797      -64.354
2003   10   29   16   17   33     -211.252      225.215      -95.210
2003   10   29   16   18   33     -215.422      225.203     -120.565
2003   10   29   16   19   33     -141.517      239.030     -195.173
2003   10   29   16   20   33     -179.558      241.835     -179.985
2003   10   29   16   21   33     -169.001      242.608     -190.574
2003   10   29   16   22   33     -226.116      241.320     -144.911
2003   10   29   16   23   33     -342.728      238.657      -44.413
2003   10   29   16   24   33     -310.404      232.526      -76.260
2003   10   29   16   25   33     -339.405      220.696      -50.925
2003   10   29   16   26   33     -312.545      206.462      -63.566
2003   10   29   16   27   33     -289.861      190.391      -75.418
2003   10   29   16   28   33     -276.708      161.612      -83.796
2003   10   29   16   29   33     -312.995      121.893      -17.229
2003   10   29   16   30   33     -317.539      114.131       11.403
2003   10   29   16   31   33     -275.509      120.514      -23.387
2003   10   29   16   32   33     -290.311      121.254       14.218
2003   10   29   16   33   33     -319.027      103.699       48.206
2003   10   29   16   34   33     -324.497       87.246       51.598
2003   10   29   16   35   33     -435.043       47.138      169.475
2003   10   29   16   36   33     -323.784       90.881       61.678
2003   10   29   16   37   33     -344.823       35.098       80.039
2003   10   29   16   38   33     -337.271        6.121       72.376
2003   10   29   16   39   33     -348.370      -17.886       80.771
2003   10   29   16   40   33     -425.615      -75.484      142.610
2003   10   29   16   41   33     -399.210      -62.091      109.749
2003   10   29   16   42   33     -394.868      -56.354       94.847
2003   10   29   16   43   33     -363.125      -10.683       65.030
2003   10   29   16   44   33     -372.286        3.195       76.255
2003   10   29   16   45   33     -402.241       -9.832      103.507
2003   10   29   16   46   33     -405.599      -15.326      106.588
2003   10   29   16   47   33     -389.985      -63.779      131.209
2003   10   29   16   48   33     -340.107      -48.097      140.399
2003   10   29   16   49   33     -376.151        0.615       76.795
2003   10   29   16   50   33     -344.426       54.280      -35.142
2003   10   29   16   51   33     -338.578       80.159     -128.751
2003   10   29   16   52   33     -335.853       96.564     -180.792
2003   10   29   16   53   33     -327.734      126.447     -212.720
2003   10   29   16   54   33     -289.255      181.458     -237.144
2003   10   29   16   55   33     -309.087      188.690     -203.336
2003   10   29   16   56   33     -352.097      191.547     -119.601
2003   10   29   16   57   33     -423.631      115.635      -14.043
2003   10   29   16   58   33     -434.670        1.989       73.582
2003   10   29   16   59   33     -449.223      -41.870      123.861
2003   10   29   17    0   33     -483.216       68.206       78.316
2003   10   29   17    1   33     -497.018      207.001     -106.434
2003   10   29   17    2   33     -531.147      236.173     -302.765
2003   10   29   17    3   33     -439.231      182.298     -434.193
2003   10   29   17    4   33     -417.024      131.362     -447.981
2003   10   29   17    5   33     -417.592      113.093     -384.255
2003   10   29   17    6   33     -452.541       66.767     -270.834
2003   10   29   17    7   33     -454.775       80.311     -199.734
2003   10   29   17    8   33     -505.984       41.518     -131.206
2003   10   29   17    9   33     -538.913       73.707     -232.981
2003   10   29   17   10   33     -669.346       67.309     -304.522
2003   10   29   17   11   33     -638.524      103.676     -419.677
2003   10   29   17   12   33     -589.088       10.589     -427.012
2003   10   29   17   13   33     -493.376      -20.894     -377.084
2003   10   29   17   14   33     -534.038      -48.671     -294.501
2003   10   29   17   15   33     -621.473       21.931     -289.215
2003   10   29   17   16   33     -731.045       74.543     -328.930
2003   10   29   17   17   33     -713.247       94.806     -367.926
2003   10   29   17   18   33     -743.743       46.391     -348.932
2003   10   29   17   19   33     -693.170       32.844     -353.879
2003   10   29   17   20   33     -709.661       -7.328     -336.161
2003   10   29   17   21   33     -741.631      -32.378     -320.916
2003   10   29   17   22   33     -711.693      -19.747     -318.824
2003   10   29   17   23   33     -598.147      -20.206     -312.421
2003   10   29   17   24   33     -645.016      -92.846     -208.736
2003   10   29   17   25   33     -595.880     -110.878     -191.327
2003   10   29   17   26   33     -596.684     -139.272     -152.276
2003   10   29   17   27   33     -603.992     -102.583     -176.434
2003   10   29   17   28   33     -643.581      -66.997     -197.954
2003   10   29   17   29   33     -680.021     -105.842     -198.259
2003   10   29   17   30   33     -694.960     -165.498     -172.648
2003   10   29   17   31   33     -721.592     -231.578      -91.622
2003   10   29   17   32   33     -649.232     -241.117      -56.014
2003   10   29   17   33   33     -652.199     -196.457        7.434
2003   10   29   17   34   33     -676.531     -192.416      107.091
2003   10   29   17   35   33     -706.996     -148.462      210.435
2003   10   29   17   36   33     -711.865      -72.506      244.798
2003   10   29   17   37   33     -752.452      -31.224      284.517
2003   10   29   17   38   33     -764.920      120.939      237.723
2003   10   29   17   39   33     -612.913      257.239     -188.532
2003   10   29   17   40   33     -558.933       47.093     -387.141
2003   10   29   17   41   33     -623.336     -113.461     -203.629
2003   10   29   17   42   33     -629.316     -142.143      -79.144
2003   10   29   17   43   33     -608.800     -156.975      -12.198
2003   10   29   17   44   33     -614.381     -128.197       47.903
2003   10   29   17   45   33     -718.890      -49.523      141.833
2003   10   29   17   46   33     -655.958       14.678       42.350
2003   10   29   17   47   33     -650.430      -34.502       36.407
2003   10   29   17   48   33     -600.738      -26.348       57.844
2003   10   29   17   49   33     -484.228       17.674      -66.556
2003   10   29   17   50   33     -452.748       32.638     -149.189
2003   10   29   17   51   33     -421.790       21.916     -219.849
2003   10   29   17   52   33     -430.290      -10.341     -204.445
2003   10   29   17   53   33     -460.958        4.708     -166.978
2003   10   29   17   54   33     -402.491       19.644     -200.395
2003   10   29   17   55   33     -374.965       47.430     -257.712
2003   10   29   17   56   33     -376.802       17.953     -318.094
2003   10   29   17   57   33     -367.533       -5.253     -373.960
2003   10   29   17   58   33     -307.634       -3.820     -423.471
2003   10   29   17   59   33     -270.525        0.666     -438.451
2003   10   29   18    0   33     -281.333       42.421     -417.128
2003   10   29   18    1   33     -377.020       77.358     -384.087
2003   10   29   18    2   33     -361.922       75.674     -443.630
2003   10   29   18    3   33     -398.586       35.913     -454.026
2003   10   29   18    4   33     -467.305      -23.433     -363.186
2003   10   29   18    5   33     -473.561      -53.919     -295.195
2003   10   29   18    6   33     -494.578      -68.866     -253.018
2003   10   29   18    7   33     -421.287      -71.722     -249.790
2003   10   29   18    8   33     -375.429      -50.407     -222.401
2003   10   29   18    9   33     -372.522      -43.284     -170.981
2003   10   29   18   10   33     -347.982       -2.157     -197.000
2003   10   29   18   11   33     -305.403       27.180     -294.022
2003   10   29   18   12   33     -261.802       31.716     -323.424
2003   10   29   18   13   33     -212.393       48.459     -347.978
2003   10   29   18   14   33     -151.711       70.065     -374.938
2003   10   29   18   15   33     -198.170       61.317     -326.713
2003   10   29   18   16   33     -196.891       38.910     -289.655
2003   10   29   18   17   33     -228.525       27.986     -226.234
2003   10   29   18   18   33     -251.297       20.607     -170.380
2003   10   29   18   19   33     -264.808        6.470     -147.537
2003   10   29   18   20   33     -280.076       25.233     -124.306
2003   10   29   18   21   33     -375.763       -6.597      -98.714
2003   10   29   18   22   33     -394.173       33.877     -104.856
2003   10   29   18   23   33     -500.573       84.417       82.730
2003   10   29   18   24   33     -551.096       76.597      158.862
2003   10   29   18   25   33     -336.699       83.704      -63.609
2003   10   29   18   26   33     -360.313       79.001     -117.522
2003   10   29   18   27   33     -469.318       50.058     -155.264
2003   10   29   18   28   33     -490.265      121.911     -340.218
2003   10   29   18   29   33     -528.881       74.398     -456.833
2003   10   29   18   30   33     -569.965      -20.607     -524.966
2003   10   29   18   31   33     -587.872     -146.371     -523.244
2003   10   29   18   32   33     -558.245     -249.490     -486.861
2003   10   29   18   33   33     -521.828     -371.933     -388.640
2003   10   29   18   34   33     -458.917     -483.550     -295.603
2003   10   29   18   35   33     -314.586     -719.689      -33.752
2003   10   29   18   36   33       58.061     -602.450      189.527
2003   10   29   18   37   33      164.847     -334.380      328.955
2003   10   29   18   38   33      134.688     -142.759      333.627
2003   10   29   18   39   33       71.752      -85.090      317.176
2003   10   29   18   40   33       65.286      -74.127      300.997
2003   10   29   18   41   33       25.533     -107.492      360.147
2003   10   29   18   42   33      -52.844     -110.276      386.309
2003   10   29   18   43   33     -172.887     -146.382      406.023
2003   10   29   18   44   33     -250.585     -163.770      425.894
2003   10   29   18   45   33     -333.871     -170.429      480.646
2003   10   29   18   46   33     -400.289     -189.529      512.337
2003   10   29   18   47   33     -360.448     -180.935      583.468
2003   10   29   18   48   33     -289.631     -146.036      604.836
2003   10   29   18   49   33     -300.119     -196.834      652.955
2003   10   29   18   50   33     -381.873     -271.577      715.596
2003   10   29   18   51   33     -362.254     -293.109      781.581
2003   10   29   18   52   33     -263.226     -237.755      706.238
2003   10   29   18   53   33     -165.540      -56.185      619.506
2003   10   29   18   54   33     -191.311     -139.904      638.154
2003   10   29   18   55   33     -335.345     -114.121      463.326
2003   10   29   18   56   33     -539.324     -161.935      660.082
2003   10   29   18   57   33     -538.996     -105.649      792.129
2003   10   29   18   58   33     -417.743      -98.539      780.409
2003   10   29   18   59   33     -378.252     -128.583      747.088
2003   10   29   19    0   33     -265.700      -37.978      700.767
2003   10   29   19    1   33     -269.020      -76.012      660.958
2003   10   29   19    2   33     -257.273      -77.067      616.884
2003   10   29   19    3   33     -277.084      -71.794      573.887
2003   10   29   19    4   33     -308.176     -121.643      555.127
2003   10   29   19    5   33     -172.524     -134.376      524.136
2003   10   29   19    6   33      -13.125     -177.524      463.033
2003   10   29   19    7   33       42.882     -201.857      479.141
2003   10   29   19    8   33        6.334     -145.501      504.474
2003   10   29   19    9   33      -51.807     -192.375      503.465
2003   10   29   19   10   33      -43.142     -137.499      703.127
2003   10   29   19   11   33     -340.829     -276.698      718.686
2003   10   29   19   12   33     -460.095     -361.233      821.242
2003   10   29   19   13   33     -432.072     -233.995      918.187
2003   10   29   19   14   33     -503.476     -276.613      949.492
2003   10   29   19   15   33     -534.576     -244.091      948.092
2003   10   29   19   16   33     -524.795     -265.841      976.066
2003   10   29   19   17   33     -560.840     -393.280      988.982
2003   10   29   19   18   33     -518.015     -351.345      964.650
2003   10   29   19   19   33     -486.159     -445.567      878.070
2003   10   29   19   20   33     -589.395     -375.510      952.613
2003   10   29   19   21   33     -741.755     -330.805     1055.300
2003   10   29   19   22   33     -891.707     -382.963     1051.900
2003   10   29   19   23   33     -676.733     -330.056      995.538
2003   10   29   19   24   33     -504.864     -274.444      925.492
2003   10   29   19   25   33     -648.894     -302.849     1014.180
2003   10   29   19   26   33     -791.817     -235.565      952.880
2003   10   29   19   27   33     -809.455      -64.308      720.788
2003   10   29   19   28   33     -789.303      -13.080      793.297
2003   10   29   19   29   33     -635.831       29.731      929.107
2003   10   29   19   30   33     -401.030      -89.912      865.835
2003   10   29   19   31   33     -218.891       50.708      632.157
2003   10   29   19   32   33     -260.237       48.924      626.996
2003   10   29   19   33   33     -534.567      -66.424      992.630
2003   10   29   19   34   33     -581.810      -26.047     1038.110
2003   10   29   19   35   33     -588.848       26.616     1067.950
2003   10   29   19   36   33     -502.141       -1.965      992.965
2003   10   29   19   37   33     -509.765     -132.342     1067.570
2003   10   29   19   38   33     -472.601     -151.089     1035.800
2003   10   29   19   39   33     -397.484     -158.419      988.769
2003   10   29   19   40   33     -344.738     -175.772      914.040
2003   10   29   19   41   33     -278.778     -140.405      835.358
2003   10   29   19   42   33     -309.568     -130.986      857.919
2003   10   29   19   43   33     -378.347     -158.340      948.625
2003   10   29   19   44   33     -403.054     -147.617      937.154
2003   10   29   19   45   33     -457.690     -178.408      950.967
2003   10   29   19   46   33     -476.551     -218.003      970.524
2003   10   29   19   47   33     -397.955     -190.066      935.935
2003   10   29   19   48   33     -298.884     -179.703      920.414
2003   10   29   19   49   33     -299.489     -145.890      959.261
2003   10   29   19   50   33     -310.972     -124.112      990.025
2003   10   29   19   51   33     -274.775     -140.993     1004.030
2003   10   29   19   52   33     -206.247     -174.988     1033.360
2003   10   29   19   53   33     -213.100     -171.690     1179.530
2003   10   29   19   54   33     -116.278     -256.670     1050.080
2003   10   29   19   55   33      -12.343     -338.085     1066.660
2003   10   29   19   56   33       61.811     -401.791      779.825
2003   10   29   19   57   33     -125.484     -605.532      594.793
2003   10   29   19   58   33     -835.206     -331.084      722.830
2003   10   29   19   59   33    -1024.990     -138.111      807.872
2003   10   29   20    0   33     -886.935     -154.755      887.893
2003   10   29   20    1   33     -622.282     -268.198     1151.050
2003   10   29   20    2   33     -704.816       55.165     1171.120
2003   10   29   20    3   33     -759.474      420.575      857.740
2003   10   29   20    4   33     -812.838      557.628      711.587
2003   10   29   20    5   33     -804.891      732.426      545.363
2003   10   29   20    6   33     -781.336      638.611      403.505
2003   10   29   20    7   33     -860.928      599.318      393.743
2003   10   29   20    8   33     -823.857      624.739      255.298
2003   10   29   20    9   33     -878.904      522.363      326.618
2003   10   29   20   10   33     -977.469      419.211      439.536
2003   10   29   20   11   33    -1123.370      259.590      563.659
2003   10   29   20   12   33    -1393.090       65.540      759.788
2003   10   29   20   13   33     -326.648     -776.668     1097.430
2003   10   29   20   14   33     -742.815     -424.015      840.378
2003   10   29   20   15   33     -635.237     -235.892      730.226
2003   10   29   20   16   33     -522.359     -225.355      529.110
2003   10   29   20   17   33      226.986     -186.602      722.147
2003   10   29   20   18   33      378.609     -369.393      872.470
2003   10   29   20   19   33      242.934     -254.414      963.330
2003   10   29   20   20   33      146.785     -166.614      894.231
2003   10   29   20   21   33       95.440     -135.042      901.231
2003   10   29   20   22   33      -74.442     -112.808      858.199
2003   10   29   20   23   33     -282.212      -80.364      895.683
2003   10   29   20   24   33     -377.910      -42.351      965.356
2003   10   29   20   25   33     -335.043     -124.734     1186.390
2003   10   29   20   26   33     -137.460     -156.172     1024.330
2003   10   29   20   27   33     -102.774     -146.629     1057.380
2003   10   29   20   28   33     -277.822     -176.612     1228.070
2003   10   29   20   29   33     -318.149     -203.593     1085.440
2003   10   29   20   30   33      -99.063     -196.563      924.179
2003   10   29   20   31   33     -144.369     -159.854      774.454
2003   10   29   20   32   33      -96.171     -136.223      752.289
2003   10   29   20   33   33      -88.668     -133.950      810.419
2003   10   29   20   34   33      -73.255     -119.103      810.335
2003   10   29   20   35   33     -129.231     -125.583      876.459
2003   10   29   20   36   33     -146.099     -120.756      865.702
2003   10   29   20   37   33     -220.119     -105.503      818.200
2003   10   29   20   38   33     -380.647      -50.111      825.675
2003   10   29   20   39   33     -425.916      -51.434      832.470
2003   10   29   20   40   33     -417.823      -48.566      898.986
2003   10   29   20   41   33     -356.961     -105.477     1008.260
2003   10   29   20   42   33     -293.714     -264.993     1087.620
2003   10   29   20   43   33     -353.038     -454.142      901.830
2003   10   29   20   44   33     -567.939     -164.963      875.460
2003   10   29   20   45   33     -468.674      -46.122     1052.150
2003   10   29   20   46   33     -531.226        4.603     1060.110
2003   10   29   20   47   33     -521.029      -74.510     1306.390
2003   10   29   20   48   33     -297.767     -204.057     1165.170
2003   10   29   20   49   33     -215.754     -164.597     1038.550
2003   10   29   20   50   33     -323.128      -10.307      848.095
2003   10   29   20   51   33     -439.063       48.907      768.988
2003   10   29   20   52   33     -410.219       -6.500      859.659
2003   10   29   20   53   33     -428.024     -149.932      887.774
2003   10   29   20   54   33     -485.461     -140.351      546.530
2003   10   29   20   55   33     -725.806       84.114      601.451
2003   10   29   20   56   33     -658.034       18.264      688.214
2003   10   29   20   57   33     -627.609      -35.608      700.075
2003   10   29   20   58   33     -567.389      -95.954      723.350
2003   10   29   20   59   33     -572.026      -48.158      752.463
2003   10   29   21    0   33     -617.999       43.704      875.399
2003   10   29   21    1   33     -693.931       89.942     1123.960
2003   10   29   21    2   33     -633.167       47.462     1171.730
2003   10   29   21    3   33     -618.926       45.356     1182.270
2003   10   29   21    4   33     -584.131        2.415     1218.850
2003   10   29   21    5   33     -572.932       13.096     1120.960
2003   10   29   21    6   33     -582.025       35.150     1027.210
2003   10   29   21    7   33     -592.516       48.732      961.494
2003   10   29   21    8   33     -598.684       64.123      958.911
2003   10   29   21    9   33     -603.689       49.885     1082.890
2003   10   29   21   10   33     -588.341       39.374     1173.120
2003   10   29   21   11   33     -614.664      -24.790     1174.860
2003   10   29   21   12   33     -680.952      -33.702     1100.950
2003   10   29   21   13   33     -614.876      -12.691      926.359
2003   10   29   21   14   33     -603.372       51.568      809.216
2003   10   29   21   15   33     -721.339       96.837     1080.370
2003   10   29   21   16   33     -739.339      108.066     1226.650
2003   10   29   21   17   33     -655.191       55.387     1394.700
2003   10   29   21   18   33     -763.770     -432.904     1299.880
2003   10   29   21   19   33     -650.890     -571.768     1005.590
2003   10   29   21   20   33     -701.903       71.427      782.306
2003   10   29   21   21   33     -565.350      195.651      757.840
2003   10   29   21   22   33     -647.905       75.697      910.830
2003   10   29   21   23   33     -614.425      124.028      991.329
2003   10   29   21   24   33     -467.076       44.509      845.752
2003   10   29   21   25   33     -311.875      -33.907      835.639
2003   10   29   21   26   33     -158.850     -260.145      810.957
2003   10   29   21   27   33      -28.968     -184.138      645.455
2003   10   29   21   28   33       -9.874     -197.772      596.915
2003   10   29   21   29   33      -24.905     -316.445      813.511
2003   10   29   21   30   33      -64.021     -284.327     1089.450
2003   10   29   21   31   33     -122.740     -182.968     1001.210
2003   10   29   21   32   33     -296.127     -141.287      873.540
2003   10   29   21   33   33     -302.459      -97.542      854.903
2003   10   29   21   34   33     -398.447      -26.747      780.878
2003   10   29   21   35   33     -489.711       27.642      726.457
2003   10   29   21   36   33     -560.031       82.511      699.910
2003   10   29   21   37   33     -643.648      128.124      695.586
2003   10   29   21   38   33     -668.477      131.325      693.863
2003   10   29   21   39   33     -636.212      147.044      666.664
2003   10   29   21   40   33     -584.115      228.433      643.948
2003   10   29   21   41   33     -518.049      314.188      576.807
2003   10   29   21   42   33     -558.553      321.121      618.287
2003   10   29   21   43   33     -580.295      273.374      715.879
2003   10   29   21   44   33     -526.998      153.193      880.179
2003   10   29   21   45   33     -453.346      -22.144      863.803
2003   10   29   21   46   33     -457.916      -73.898      755.974
2003   10   29   21   47   33     -437.648      -13.476      671.486
2003   10   29   21   48   33     -444.038       74.838      660.333
2003   10   29   21   49   33     -469.534       91.539      617.026
2003   10   29   21   50   33     -418.131      -10.901      566.543
2003   10   29   21   51   33     -444.384     -112.490      651.182
2003   10   29   21   52   33     -406.360     -163.575      751.063
2003   10   29   21   53   33     -391.783       -9.538      909.316
2003   10   29   21   54   33     -382.014      105.774      900.287
2003   10   29   21   55   33     -497.098      169.167      802.090
2003   10   29   21   56   33     -491.798      160.015      772.697
2003   10   29   21   57   33     -506.112      152.396      748.208
2003   10   29   21   58   33     -501.374      114.809      712.484
2003   10   29   21   59   33     -500.217       44.067      763.583
2003   10   29   22    0   33     -492.845      -21.262      857.351
2003   10   29   22    1   33     -478.002      -35.169      887.644
2003   10   29   22    2   33     -446.038      -28.453      898.601
2003   10   29   22    3   33     -441.321      -21.410      879.514
2003   10   29   22    4   33     -424.224      -25.374      879.929
2003   10   29   22    5   33     -400.035      -28.756      903.335
2003   10   29   22    6   33     -361.768      -58.354      962.572
2003   10   29   22    7   33     -311.702     -110.346      987.855
2003   10   29   22    8   33     -256.731     -113.061      970.344
2003   10   29   22    9   33     -238.666     -115.207     1013.660
2003   10   29   22   10   33     -370.743      -36.500     1059.860
2003   10   29   22   11   33     -177.502      -52.139     1158.470
2003   10   29   22   12   33     -232.440     -159.203     1034.070
2003   10   29   22   13   33     -379.295     -138.228      906.868
2003   10   29   22   14   33     -479.464      -55.502      904.624
2003   10   29   22   15   33     -616.637      -67.965      883.488
2003   10   29   22   16   33     -766.932     -252.033     1085.850
2003   10   29   22   17   33     -362.183     -207.625     1096.280
2003   10   29   22   18   33     -228.943     -138.323     1134.730
2003   10   29   22   19   33     -190.942     -149.526     1067.510
2003   10   29   22   20   33     -264.387     -106.418     1090.890
2003   10   29   22   21   33     -250.641     -117.479     1088.530
2003   10   29   22   22   33     -221.128     -123.546     1033.930
2003   10   29   22   23   33     -201.841     -129.754      990.778
2003   10   29   22   24   33     -241.035     -109.112      987.504
2003   10   29   22   25   33     -353.688      -23.140     1219.380
2003   10   29   22   26   33     -319.704      -69.452     1229.550
2003   10   29   22   27   33     -376.866       87.422     1214.560
2003   10   29   22   28   33     -566.696      160.913     1127.190
2003   10   29   22   29   33     -654.818      152.953     1117.310
2003   10   29   22   30   33     -727.199      212.029     1132.770
2003   10   29   22   31   33     -788.250      272.563     1092.520
2003   10   29   22   32   33     -788.007      269.285     1065.680
2003   10   29   22   33   33     -818.003      263.299     1089.870
2003   10   29   22   34   33     -780.161      234.125     1086.270
2003   10   29   22   35   33     -808.510      261.307     1233.430
2003   10   29   22   36   33     -625.021      239.856     1422.490
2003   10   29   22   37   33     -344.714      -11.466     1563.140
2003   10   29   22   38   33     -347.022     -447.082     1089.300
2003   10   29   22   39   33     -696.454     -165.905      949.158
2003   10   29   22   40   33     -708.514      -58.435     1042.990
2003   10   29   22   41   33     -594.161        7.399     1120.830
2003   10   29   22   42   33     -434.617      -86.387     1199.420
2003   10   29   22   43   33     -447.944     -252.240     1084.350
2003   10   29   22   44   33     -333.309     -293.104      772.473
2003   10   29   22   45   33     -390.269     -268.161      821.048
2003   10   29   22   46   33     -612.727     -203.936      891.650
2003   10   29   22   47   33     -724.091     -148.339      950.781
2003   10   29   22   48   33     -796.233     -131.993     1011.350
2003   10   29   22   49   33     -915.448      -92.036     1052.780
2003   10   29   22   50   33     -962.949      -49.966     1047.580
2003   10   29   22   51   33    -1001.780      -45.009     1051.320
2003   10   29   22   52   33    -1024.300      -39.256     1003.630
2003   10   29   22   53   33    -1192.350       24.235      844.669
2003   10   29   22   54   33    -1236.150      128.140      852.399
2003   10   29   22   55   33    -1140.370       66.707      999.438
2003   10   29   22   56   33     -966.552      -16.134     1113.520
2003   10   29   22   57   33     -904.816      -24.949     1182.070
2003   10   29   22   58   33     -842.795       -6.276     1163.790
2003   10   29   22   59   33     -812.946       14.859     1191.000
2003   10   29   23    0   33     -793.336       35.462     1171.710
2003   10   29   23    1   33     -784.283       67.395     1113.870
2003   10   29   23    2   33     -804.183      108.119     1035.590
2003   10   29   23    3   33     -728.271      130.337      989.756
2003   10   29   23    4   33     -750.768      163.731      968.019
2003   10   29   23    5   33     -886.858      191.987      975.718
2003   10   29   23    6   33     -819.011      189.768      953.089
2003   10   29   23    7   33     -797.697      294.205      950.749
2003   10   29   23    8   33     -789.689      403.728     1154.370
2003   10   29   23    9   33     -797.517      453.274     1286.960
2003   10   29   23   10   33     -646.031      402.703     1708.220
2003   10   29   23   11   33     -639.493       72.999     1743.600
2003   10   29   23   12   33     -703.574     -436.575     1486.310
2003   10   29   23   13   33     -802.949     -622.706      994.949
2003   10   29   23   14   33     -997.001     -477.705      589.195
2003   10   29   23   15   33    -1114.260     -137.238      429.051
2003   10   29   23   16   33    -1082.480     -143.360      787.544
2003   10   29   23   17   33     -688.581      -86.164     1055.730
2003   10   29   23   18   33     -548.988      -47.883      929.287
2003   10   29   23   19   33     -541.584      -91.654      945.262
2003   10   29   23   20   33     -481.846      -78.019      863.222
2003   10   29   23   21   33     -416.040      -76.746      914.438
2003   10   29   23   22   33     -368.455      -82.678      939.884
2003   10   29   23   23   33     -415.810      -87.404      977.359
2003   10   29   23   24   33     -384.892     -142.440     1037.420
2003   10   29   23   25   33     -295.076     -165.725     1167.910
2003   10   29   23   26   33     -263.150     -152.479     1278.220
2003   10   29   23   27   33     -279.233     -120.725     1318.700
2003   10   29   23   28   33     -343.071     -121.367     1392.350
2003   10   29   23   29   33     -329.040     -173.373     1348.190
2003   10   29   23   30   33     -247.553     -221.280     1001.530
2003   10   29   23   31   33     -440.402     -255.967      918.036
2003   10   29   23   32   33     -576.895     -212.532      764.196
2003   10   29   23   33   33     -783.155      -78.186      696.431
2003   10   29   23   34   33     -786.433       15.348      812.762
2003   10   29   23   35   33     -596.218       51.857      805.149
2003   10   29   23   36   33     -490.963      -35.163      827.946
2003   10   29   23   37   33     -377.974      -38.459      838.608
2003   10   29   23   38   33     -336.574      -39.468      829.321
2003   10   29   23   39   33     -267.671     -114.648      806.369
2003   10   29   23   40   33     -420.725      -69.678      759.942
2003   10   29   23   41   33     -576.007       -8.303      827.558
2003   10   29   23   42   33     -613.530       38.240      883.584
2003   10   29   23   43   33     -623.132       68.510      916.575
2003   10   29   23   44   33     -696.071       96.449      968.924
2003   10   29   23   45   33     -779.592      108.167      990.867
2003   10   29   23   46   33     -868.452      123.151     1028.960
2003   10   29   23   47   33     -913.641      119.059     1045.260
2003   10   29   23   48   33     -941.862      118.394     1058.090
2003   10   29   23   49   33    -1036.320      153.404     1075.480
2003   10   29   23   50   33    -1053.550      161.552     1065.290
2003   10   29   23   51   33    -1076.290      157.678     1027.850
2003   10   29   23   52   33    -1118.580      187.531     1046.320
2003   10   29   23   53   33    -1127.950      191.264     1027.500
2003   10   29   23   54   33    -1150.460      197.244     1021.290
2003   10   29   23   55   33    -1147.790      198.941      974.624
2003   10   29   23   56   33    -1143.230      197.949      883.633
2003   10   29   23   57   33    -1084.580      163.982      804.973
2003   10   29   23   58   33    -1082.120      144.598      759.800
2003   10   29   23   59   33    -1065.590      138.363      761.936
2003   10   30    0    0   33     -992.801      105.918      796.282
2003   10   30    0    1   33     -978.140      104.040      822.141
2003   10   30    0    2   33    -1026.610       76.227      838.196
2003   10   30    0    3   33     -984.217       59.529      819.534
2003   10   30    0    4   33    -1005.890       72.961      839.994
2003   10   30    0    5   33     -994.224        6.519      833.281
2003   10   30    0    6   33    -1098.100     -123.840      682.978
2003   10   30    0    7   33    -1149.010     -119.867      379.886
2003   10   30    0    8   33    -1300.470      107.431      404.675
2003   10   30    0    9   33    -1198.890       62.746      489.648
2003   10   30    0   10   33    -1290.880       99.608      598.604
2003   10   30    0   11   33    -1260.320      114.580      679.244
2003   10   30    0   12   33    -1086.610       46.494      752.521
2003   10   30    0   13   33     -904.969       -4.071      822.486
2003   10   30    0   14   33     -755.832      -34.499      823.147
2003   10   30    0   15   33     -820.724      -53.769      783.559
2003   10   30    0   16   33     -807.151       -1.424      755.194
2003   10   30    0   17   33     -870.249       30.964      762.707
2003   10   30    0   18   33     -783.076      155.143      856.119
2003   10   30    0   19   33     -690.819      181.199      967.709
2003   10   30    0   20   33     -710.484      158.781     1012.950
2003   10   30    0   21   33     -722.486      174.767     1058.970
2003   10   30    0   22   33     -699.658      122.555     1125.460
2003   10   30    0   23   33     -670.610       58.938     1195.540
2003   10   30    0   24   33     -760.031      104.462     1281.610
2003   10   30    0   25   33     -586.542       58.571     1214.540
2003   10   30    0   26   33     -618.835      221.656     1290.390
2003   10   30    0   27   33     -553.656      120.183     1044.430
2003   10   30    0   28   33     -797.222       79.215      778.200
2003   10   30    0   29   33     -825.580       68.775      716.928
2003   10   30    0   30   33     -857.497       54.992      764.228
2003   10   30    0   31   33     -875.443       54.869      890.807
2003   10   30    0   32   33     -781.566       33.453     1093.100
2003   10   30    0   33   33     -763.114      -36.828     1104.300
2003   10   30    0   34   33     -694.656     -155.968     1017.520
2003   10   30    0   35   33     -760.898     -370.989      954.214
2003   10   30    0   36   33     -658.640     -411.593     1072.220
2003   10   30    0   37   33     -766.429     -597.560      921.124
2003   10   30    0   38   33     -422.651     -482.601      950.118
2003   10   30    0   39   33     -632.974     -200.870     1095.750
2003   10   30    0   40   33     -748.420      -90.252     1054.710
2003   10   30    0   41   33     -797.138      -42.647      987.677
2003   10   30    0   42   33     -808.892       -9.816      948.110
2003   10   30    0   43   33     -756.575       25.987     1008.800
2003   10   30    0   44   33     -669.140       37.023     1071.770
2003   10   30    0   45   33     -594.832       13.422     1060.770
2003   10   30    0   46   33     -604.245       12.117     1023.030
2003   10   30    0   47   33     -643.116       -1.316      991.048
2003   10   30    0   48   33     -665.942       -1.082     1003.090
2003   10   30    0   49   33     -665.852        2.169     1021.510
2003   10   30    0   50   33     -658.110        4.690     1038.620
2003   10   30    0   51   33     -763.035       15.188     1078.210
2003   10   30    0   52   33     -788.408       10.229     1110.990
2003   10   30    0   53   33     -768.742       13.566     1138.430
2003   10   30    0   54   33     -659.328       21.020     1149.370
2003   10   30    0   55   33     -570.667      -12.860     1098.040
2003   10   30    0   56   33     -503.018      -34.508     1043.640
2003   10   30    0   57   33     -470.714      -34.913     1014.550
2003   10   30    0   58   33     -484.292      -25.967      996.364
2003   10   30    0   59   33     -507.024      -24.837      983.930
2003   10   30    1    0   33     -558.373      -16.566      985.886
2003   10   30    1    1   33     -609.413      -11.998      991.773
2003   10   30    1    2   33     -665.482      -11.387      983.470
2003   10   30    1    3   33     -707.048       -6.724      968.574
2003   10   30    1    4   33     -776.287      -29.652      961.757
2003   10   30    1    5   33     -819.790      -57.676      939.065
2003   10   30    1    6   33     -857.332      -90.089      909.923
2003   10   30    1    7   33     -892.459     -117.192      876.591
2003   10   30    1    8   33     -806.909     -122.578      815.146
2003   10   30    1    9   33     -906.197     -116.255      818.432
2003   10   30    1   10   33     -890.911     -106.718      851.761
2003   10   30    1   11   33     -664.264      -88.691      885.698
2003   10   30    1   12   33     -729.516      -88.689      940.627
2003   10   30    1   13   33     -765.101      -89.727      963.256
2003   10   30    1   14   33     -777.510      -76.749      973.515
2003   10   30    1   15   33     -635.431      -86.132      983.099
2003   10   30    1   16   33     -654.134      -56.886     1036.410
2003   10   30    1   17   33     -783.095      -11.558     1183.510
2003   10   30    1   18   33     -444.458      -29.632     1237.210
2003   10   30    1   19   33     -534.568        1.234     1145.960
2003   10   30    1   20   33     -419.054      -23.062     1038.200
2003   10   30    1   21   33     -439.487      -22.014      984.574
2003   10   30    1   22   33     -417.593        2.597      957.195
2003   10   30    1   23   33     -425.925       12.103      955.182
2003   10   30    1   24   33     -417.911       15.347      955.696
2003   10   30    1   25   33     -407.600       26.419      951.658
2003   10   30    1   26   33     -447.952       32.025     1001.460
2003   10   30    1   27   33     -457.487       27.284     1079.740
2003   10   30    1   28   33     -412.371        8.336     1117.830
2003   10   30    1   29   33     -514.775      -29.464     1083.420
2003   10   30    1   30   33     -504.347      -45.315     1072.400
2003   10   30    1   31   33     -533.402      -56.121     1066.940
2003   10   30    1   32   33     -488.136      -77.737     1133.880
2003   10   30    1   33   33     -525.514     -149.033     1158.490
2003   10   30    1   34   33     -332.326      -76.220     1176.200
2003   10   30    1   35   33     -369.252      -17.356     1127.600
2003   10   30    1   36   33     -433.426        1.276     1075.140
2003   10   30    1   37   33     -377.436       20.641     1049.580
2003   10   30    1   38   33     -384.564       65.582     1036.990
2003   10   30    1   39   33     -353.321       55.582     1045.690
2003   10   30    1   40   33     -344.288       35.996     1106.650
2003   10   30    1   41   33     -359.781       31.872     1092.690
2003   10   30    1   42   33     -368.217       68.895     1082.810
2003   10   30    1   43   33     -320.135       88.537     1064.050
2003   10   30    1   44   33     -293.330      101.260     1012.260
2003   10   30    1   45   33     -292.688       92.201      952.324
2003   10   30    1   46   33     -320.242       73.023      925.900
2003   10   30    1   47   33     -325.819       58.904      905.447
2003   10   30    1   48   33     -373.573       42.121      894.213
2003   10   30    1   49   33     -354.849       25.435      903.079
2003   10   30    1   50   33     -362.924       10.880      919.483
2003   10   30    1   51   33     -437.403       -3.574      965.519
2003   10   30    1   52   33     -449.977      -16.450     1045.670
2003   10   30    1   53   33     -529.408      -57.393     1134.800
2003   10   30    1   54   33     -657.932      -83.524     1104.870
2003   10   30    1   55   33     -645.165     -103.607     1032.220
2003   10   30    1   56   33     -636.505      -84.631      967.350
2003   10   30    1   57   33     -686.618      -70.473      945.958
2003   10   30    1   58   33     -543.313      -63.287      921.203
2003   10   30    1   59   33     -520.023      -50.609      907.103
2003   10   30    2    0   33     -481.981      -36.839      877.700
2003   10   30    2    1   33     -442.842      -34.907      856.134
2003   10   30    2    2   33     -446.980      -34.022      848.046
2003   10   30    2    3   33     -452.377      -34.420      823.399
2003   10   30    2    4   33     -425.602      -24.216      800.220
2003   10   30    2    5   33     -406.795       -8.975      793.485
2003   10   30    2    6   33     -364.298        1.432      778.949
2003   10   30    2    7   33     -359.686        7.434      751.775
2003   10   30    2    8   33     -379.639       27.514      724.386
2003   10   30    2    9   33     -216.169       78.771      758.905
2003   10   30    2   10   33     -172.653      127.816      951.269
2003   10   30    2   11   33     -164.251       88.636      950.078
2003   10   30    2   12   33     -230.588       94.439      917.994
2003   10   30    2   13   33     -193.235       76.406     1005.580
2003   10   30    2   14   33     -213.056       63.269     1076.930
2003   10   30    2   15   33     -253.543       44.330     1103.980
2003   10   30    2   16   33     -206.690       32.714     1096.840
2003   10   30    2   17   33     -232.083       35.683     1077.670
2003   10   30    2   18   33     -241.775       38.897     1055.250
2003   10   30    2   19   33     -333.035       70.702     1019.380
2003   10   30    2   20   33     -382.043       77.512      980.323
2003   10   30    2   21   33     -359.470       80.953      935.594
2003   10   30    2   22   33     -383.617       45.259      871.161
2003   10   30    2   23   33     -297.282       10.000      843.789
2003   10   30    2   24   33     -287.152        4.813      829.662
2003   10   30    2   25   33     -505.006       82.037      879.304
2003   10   30    2   26   33     -552.705      109.866      836.971
2003   10   30    2   27   33     -257.160      -15.487      692.742
2003   10   30    2   28   33      297.222      -32.989      780.763
2003   10   30    2   29   33      242.613       31.322      768.928
2003   10   30    2   30   33      253.569       61.472      735.844
2003   10   30    2   31   33      220.448       76.483      701.875
2003   10   30    2   32   33      236.277       82.404      676.881
2003   10   30    2   33   33      175.116       97.320      654.369
2003   10   30    2   34   33      154.229       92.093      661.350
2003   10   30    2   35   33      138.447       97.538      661.239
2003   10   30    2   36   33      130.734      101.328      648.099
2003   10   30    2   37   33      144.295       98.996      637.146
2003   10   30    2   38   33      168.987      102.267      621.613
2003   10   30    2   39   33      127.313      103.239      608.395
2003   10   30    2   40   33       67.220      107.657      601.218
2003   10   30    2   41   33      -14.470      121.899      637.486
2003   10   30    2   42   33     -110.854      144.041      678.792
2003   10   30    2   43   33     -178.399      160.331      739.618
2003   10   30    2   44   33     -204.023      137.814      787.287
2003   10   30    2   45   33     -144.484      100.891      755.066
2003   10   30    2   46   33      -94.280       81.616      734.311
2003   10   30    2   47   33     -149.977       65.458      747.555
2003   10   30    2   48   33     -195.575       44.421      759.180
2003   10   30    2   49   33     -207.594       31.941      757.342
2003   10   30    2   50   33     -220.562       30.829      772.949
2003   10   30    2   51   33     -341.562       30.133      788.937
2003   10   30    2   52   33     -398.550       12.530      847.968
2003   10   30    2   53   33     -422.948       -6.578      925.882
2003   10   30    2   54   33     -528.739      -39.324      978.575
2003   10   30    2   55   33     -543.021      -33.985     1020.090
2003   10   30    2   56   33     -688.468      -41.484     1036.000
2003   10   30    2   57   33     -710.256      -70.757     1095.370
2003   10   30    2   58   33     -702.957      -90.380     1128.290
2003   10   30    2   59   33     -778.070     -103.432     1092.460
2003   10   30    3    0   33     -750.902     -123.325     1099.620
2003   10   30    3    1   33     -743.464     -131.342     1088.420
2003   10   30    3    2   33     -711.692     -131.862     1081.370
2003   10   30    3    3   33     -715.438     -129.351     1055.300
2003   10   30    3    4   33     -648.269     -115.490     1042.830
2003   10   30    3    5   33     -667.509      -93.922     1010.330
2003   10   30    3    6   33     -621.134      -47.743      953.562
2003   10   30    3    7   33     -683.941      -18.569      860.284
2003   10   30    3    8   33     -603.122      -47.858      796.741
2003   10   30    3    9   33     -543.621      -43.330      732.563
2003   10   30    3   10   33     -445.308      -16.828      701.655
2003   10   30    3   11   33     -378.753      -13.186      694.465
2003   10   30    3   12   33     -306.642      -25.362      704.457
2003   10   30    3   13   33     -111.397      -29.111      650.909
2003   10   30    3   14   33      -93.825       -1.963      584.616
2003   10   30    3   15   33       48.350       12.741      510.808
2003   10   30    3   16   33      288.732       37.580      412.235
2003   10   30    3   17   33      492.129       68.930      312.299
2003   10   30    3   18   33      593.816       64.254      213.511
2003   10   30    3   19   33      627.950       26.623      192.419
2003   10   30    3   20   33      571.059      -31.996      235.499
2003   10   30    3   21   33      600.952      -75.281      253.496
2003   10   30    3   22   33      636.034     -115.511      278.419
2003   10   30    3   23   33      612.301     -132.906      303.391
2003   10   30    3   24   33      550.466     -129.719      300.018
2003   10   30    3   25   33      420.815     -137.811      301.234
2003   10   30    3   26   33      325.402     -158.167      344.089
2003   10   30    3   27   33      255.831     -139.128      368.976
2003   10   30    3   28   33      203.642     -123.358      397.067
2003   10   30    3   29   33      132.555     -118.464      428.963
2003   10   30    3   30   33       81.584     -103.275      423.803
2003   10   30    3   31   33       58.237      -90.602      424.123
2003   10   30    3   32   33       32.414      -77.107      423.512
2003   10   30    3   33   33       -6.007      -62.622      399.024
2003   10   30    3   34   33      -11.950      -55.095      407.133
2003   10   30    3   35   33      -24.789      -48.592      392.107
2003   10   30    3   36   33      -23.083      -34.764      415.093
2003   10   30    3   37   33      -28.832      -20.889      415.271
2003   10   30    3   38   33      -49.154      -12.456      411.898
2003   10   30    3   39   33      -67.035       -1.840      420.425
2003   10   30    3   40   33      -81.279       10.900      428.110
2003   10   30    3   41   33     -104.251       23.266      421.500
2003   10   30    3   42   33     -121.378       34.249      405.868
2003   10   30    3   43   33     -131.790       21.884      391.690
2003   10   30    3   44   33     -138.665       13.014      387.884
2003   10   30    3   45   33     -153.062       21.943      381.691
2003   10   30    3   46   33     -160.816       19.436      370.528
2003   10   30    3   47   33     -165.358       13.680      367.661
2003   10   30    3   48   33     -168.449        0.609      347.070
2003   10   30    3   49   33     -162.495        1.130      335.751
2003   10   30    3   50   33     -153.578       -0.021      314.656
2003   10   30    3   51   33     -146.761       -8.990      285.989
2003   10   30    3   52   33     -127.846      -15.326      269.337
2003   10   30    3   53   33     -116.421      -18.838      258.464
2003   10   30    3   54   33      -99.278      -18.913      250.076
2003   10   30    3   55   33      -87.820      -18.627      235.534
2003   10   30    3   56   33      -73.080      -26.120      226.828
2003   10   30    3   57   33      -60.114      -33.649      230.897
2003   10   30    3   58   33      -42.640      -43.423      245.020
2003   10   30    3   59   33      -36.325      -51.962      265.738
2003   10   30    4    0   33      -29.056      -54.029      282.877
2003   10   30    4    1   33      -28.020      -52.000      287.409
2003   10   30    4    2   33      -20.460      -52.447      289.842
2003   10   30    4    3   33      -11.563      -52.180      296.996
2003   10   30    4    4   33        5.252      -54.199      305.343
2003   10   30    4    5   33       21.148      -53.978      313.739
2003   10   30    4    6   33       34.705      -55.784      319.303
2003   10   30    4    7   33       47.126      -54.948      329.994
2003   10   30    4    8   33       49.869      -52.288      335.039
2003   10   30    4    9   33       51.810      -50.485      338.648
2003   10   30    4   10   33       56.025      -48.608      343.031
2003   10   30    4   11   33       52.838      -44.655      345.318
2003   10   30    4   12   33       53.214      -42.916      343.120
2003   10   30    4   13   33       49.239      -38.951      346.516
2003   10   30    4   14   33       48.325      -36.823      343.169
2003   10   30    4   15   33       40.730      -30.475      345.502
2003   10   30    4   16   33       23.894      -28.722      335.577
2003   10   30    4   17   33        6.047      -29.121      324.446
2003   10   30    4   18   33        1.996      -33.492      316.931
2003   10   30    4   19   33        5.055      -39.540      311.155
2003   10   30    4   20   33       11.780      -46.809      311.467
2003   10   30    4   21   33       16.844      -55.605      313.102
2003   10   30    4   22   33       19.748      -60.597      321.684
2003   10   30    4   23   33       21.928      -62.259      326.903
2003   10   30    4   24   33       25.368      -65.104      333.036
2003   10   30    4   25   33       28.421      -64.433      342.576
2003   10   30    4   26   33       33.745      -60.355      346.258
2003   10   30    4   27   33       42.397      -56.848      348.533
2003   10   30    4   28   33       49.095      -54.493      349.514
2003   10   30    4   29   33       52.423      -51.992      345.610
2003   10   30    4   30   33       57.474      -49.053      341.630
2003   10   30    4   31   33       62.822      -48.470      339.541
2003   10   30    4   32   33       65.385      -47.027      337.734
2003   10   30    4   33   33       64.844      -42.491      334.458
2003   10   30    4   34   33       43.475      -43.112      308.204
2003   10   30    4   35   33       40.802      -42.183      300.457
2003   10   30    4   36   33       28.991      -42.889      292.275
2003   10   30    4   37   33       21.017      -41.882      287.810
2003   10   30    4   38   33       22.923      -40.024      285.718
2003   10   30    4   39   33       10.724      -39.287      280.644
2003   10   30    4   40   33       -0.479      -39.350      279.349
2003   10   30    4   41   33      -11.275      -35.345      275.874
2003   10   30    4   42   33      -17.462      -34.838      273.757
2003   10   30    4   43   33      -25.651      -35.125      274.685
2003   10   30    4   44   33      -29.512      -33.917      279.471
2003   10   30    4   45   33      -31.965      -30.880      279.204
2003   10   30    4   46   33      -29.213      -23.942      268.588
2003   10   30    4   47   33      -38.001      -36.843      288.308
2003   10   30    4   48   33      -44.342      -30.094      287.604
2003   10   30    4   49   33      -46.208      -27.889      282.831
2003   10   30    4   50   33      -52.101      -31.841      274.891
2003   10   30    4   51   33      -66.911      -40.777      277.213
2003   10   30    4   52   33      -49.098      -41.827      287.850
2003   10   30    4   53   33      -44.001      -34.566      286.511
2003   10   30    4   54   33      -11.165      -58.353      279.723
2003   10   30    4   55   33       14.809      -79.399      334.228
2003   10   30    4   56   33        7.844      -80.617      387.081
2003   10   30    4   57   33        4.031      -73.683      396.954
2003   10   30    4   58   33       -1.860      -67.800      396.881
2003   10   30    4   59   33       -2.753      -62.683      404.818
2003   10   30    5    0   33        5.507      -52.276      410.679
2003   10   30    5    1   33        9.493      -45.489      410.247
2003   10   30    5    2   33       14.575      -38.652      403.734
2003   10   30    5    3   33        7.580      -35.850      390.478
2003   10   30    5    4   33        8.788      -30.684      379.242
2003   10   30    5    5   33       10.901      -34.275      373.963
2003   10   30    5    6   33       13.665      -34.414      378.511
2003   10   30    5    7   33       10.631      -33.729      374.640
2003   10   30    5    8   33        6.373      -30.044      367.730
2003   10   30    5    9   33        6.561      -27.841      354.478
2003   10   30    5   10   33        7.345      -30.423      354.230
2003   10   30    5   11   33        5.070      -38.924      374.287
2003   10   30    5   12   33      -28.649      -28.877      383.610
2003   10   30    5   13   33      -82.153       57.249      252.870
2003   10   30    5   14   33      194.206     -144.418      224.436
2003   10   30    5   15   33      225.878     -123.119      569.761
2003   10   30    5   16   33       83.963      -13.579      658.313
2003   10   30    5   17   33      -66.842       57.112      483.288
2003   10   30    5   18   33      -52.956      -14.119      338.333
2003   10   30    5   19   33      -54.659      -17.133      381.023
2003   10   30    5   20   33      -27.492        3.361      413.614
2003   10   30    5   21   33      -14.248       22.464      381.144
2003   10   30    5   22   33       18.743      -12.632      333.492
2003   10   30    5   23   33       11.556      -23.343      340.375
2003   10   30    5   24   33        3.794      -18.914      338.545
2003   10   30    5   25   33       -3.803      -29.360      322.287
2003   10   30    5   26   33      -12.370      -38.735      328.838
2003   10   30    5   27   33      224.088     -130.222      121.564
2003   10   30    5   28   33      275.943     -151.617      496.757
2003   10   30    5   29   33      181.196      -93.648      598.132
2003   10   30    5   30   33       36.880      -15.357      596.061
2003   10   30    5   31   33      -46.470       32.660      504.796
2003   10   30    5   32   33      -57.062       14.563      366.485
2003   10   30    5   33   33      -45.624      -13.122      333.686
2003   10   30    5   34   33      -28.448       -1.187      347.520
2003   10   30    5   35   33       -3.553       -3.091      345.018
2003   10   30    5   36   33       44.048        0.239      316.841
2003   10   30    5   37   33       82.376      -45.481      304.014
2003   10   30    5   38   33       85.818      -66.407      349.940
2003   10   30    5   39   33       63.206      -65.293      357.102
2003   10   30    5   40   33       58.374      -68.736      349.710
2003   10   30    5   41   33       50.014      -66.087      353.528
2003   10   30    5   42   33       54.087      -56.715      362.866
2003   10   30    5   43   33       43.714      -44.158      365.130
2003   10   30    5   44   33       31.704      -39.342      356.448
2003   10   30    5   45   33       26.414      -40.317      352.134
2003   10   30    5   46   33       30.904      -37.840      352.164
2003   10   30    5   47   33       33.870      -38.498      342.294
2003   10   30    5   48   33       26.242      -37.620      351.042
2003   10   30    5   49   33       10.695      -28.747      354.108
2003   10   30    5   50   33       -6.407      -20.780      341.711
2003   10   30    5   51   33      -23.078      -16.622      326.186
2003   10   30    5   52   33      -30.598      -10.661      299.292
2003   10   30    5   53   33      -52.307      -16.686      334.712
2003   10   30    5   54   33      -48.857      -12.101      324.960
2003   10   30    5   55   33      -56.039      -13.339      304.737
2003   10   30    5   56   33      -58.519      -15.673      274.349
2003   10   30    5   57   33      -60.835      -20.638      283.946
2003   10   30    5   58   33      -67.073      -13.249      308.852
2003   10   30    5   59   33      -66.745       -5.549      305.245
2003   10   30    6    0   33      -64.347      -10.567      295.575
2003   10   30    6    1   33      -64.231      -11.895      292.240
2003   10   30    6    2   33      -69.243       -7.722      314.362
2003   10   30    6    3   33      -72.864        1.536      320.275
2003   10   30    6    4   33      -69.723        3.470      322.047
2003   10   30    6    5   33      -86.992       22.938      332.136
2003   10   30    6    6   33      -92.804       32.250      334.052
2003   10   30    6    7   33      -86.196       25.662      335.862
2003   10   30    6    8   33      -85.904       26.017      342.834
2003   10   30    6    9   33      -93.351       35.079      336.058
2003   10   30    6   10   33      -94.166       33.807      320.320
2003   10   30    6   11   33      -82.933       33.137      293.497
2003   10   30    6   12   33      -80.152       26.357      296.067
2003   10   30    6   13   33      -81.378       29.824      294.412
2003   10   30    6   14   33      -71.442       24.974      291.884
2003   10   30    6   15   33      -66.552       20.496      299.024
2003   10   30    6   16   33      -76.616       33.486      301.332
2003   10   30    6   17   33      -76.238       35.537      304.000
2003   10   30    6   18   33      -76.132       40.138      309.583
2003   10   30    6   19   33      -69.056       34.091      311.273
2003   10   30    6   20   33      -70.957       36.811      310.320
2003   10   30    6   21   33      -70.728       38.504      307.239
2003   10   30    6   22   33      -69.514       40.050      309.904
2003   10   30    6   23   33      -70.823       42.044      314.211
2003   10   30    6   24   33      -59.038       41.888      314.827
2003   10   30    6   25   33      -56.045       39.084      306.512
2003   10   30    6   26   33      -54.082       38.055      303.323
2003   10   30    6   27   33      -52.614       37.253      302.602
2003   10   30    6   28   33      -52.026       34.627      298.583
2003   10   30    6   29   33      -51.501       30.750      296.049
2003   10   30    6   30   33      -52.521       28.383      281.286
2003   10   30    6   31   33      -47.265       26.116      267.787
2003   10   30    6   32   33      -40.137       20.357      281.441
2003   10   30    6   33   33      -41.100       25.257      295.535
2003   10   30    6   34   33      -39.540       25.585      293.652
2003   10   30    6   35   33      -41.201       24.289      291.068
2003   10   30    6   36   33      -44.561       25.416      292.735
2003   10   30    6   37   33      -44.050       30.363      293.965
2003   10   30    6   38   33      -39.509       31.355      289.048
2003   10   30    6   39   33      -39.411       33.150      290.700
2003   10   30    6   40   33      -37.462       35.127      287.927
2003   10   30    6   41   33      -30.960       34.047      290.206
2003   10   30    6   42   33      -22.731       34.398      292.346
2003   10   30    6   43   33      -14.648       34.642      296.943
2003   10   30    6   44   33      -13.400       37.617      303.408
2003   10   30    6   45   33      -16.132       45.666      316.801
2003   10   30    6   46   33      -27.534       54.075      316.645
2003   10   30    6   47   33      -24.374       52.621      305.809
2003   10   30    6   48   33      -33.715       59.796      296.107
2003   10   30    6   49   33      -21.151       61.941      263.621
2003   10   30    6   50   33      -44.038       42.402      270.212
2003   10   30    6   51   33      -29.309       42.603      243.142
2003   10   30    6   52   33      -28.715       30.375      237.783
2003   10   30    6   53   33      -28.694       27.766      236.003
2003   10   30    6   54   33      -29.143       26.279      235.898
2003   10   30    6   55   33      -29.182       24.735      232.524
2003   10   30    6   56   33      -30.353       25.616      229.201
2003   10   30    6   57   33      -34.856       25.890      223.536
2003   10   30    6   58   33      -35.343       23.481      210.559
2003   10   30    6   59   33      -37.971       19.004      214.602
2003   10   30    7    0   33      -40.647       14.045      205.193
2003   10   30    7    1   33      -41.018        9.248      200.015
2003   10   30    7    2   33      -43.412        9.939      208.439
2003   10   30    7    3   33      -46.339       17.672      201.542
2003   10   30    7    4   33      -49.336       24.372      203.652
2003   10   30    7    5   33      -54.710       27.993      202.227
2003   10   30    7    6   33      -53.833       26.767      199.557
2003   10   30    7    7   33      -51.691       24.027      195.959
2003   10   30    7    8   33      -54.863       25.530      193.509
2003   10   30    7    9   33      -55.947       21.748      190.344
2003   10   30    7   10   33      -56.608       18.090      186.925
2003   10   30    7   11   33      -58.854       18.003      186.120
2003   10   30    7   12   33      -61.515       16.607      184.586
2003   10   30    7   13   33      -63.717       15.288      183.377
2003   10   30    7   14   33      -65.702       13.529      181.869
2003   10   30    7   15   33      -68.019       13.460      180.282
2003   10   30    7   16   33      -68.390       10.992      180.326
2003   10   30    7   17   33      -69.209        8.592      180.946
2003   10   30    7   18   33      -71.252        8.371      181.645
2003   10   30    7   19   33      -71.885        6.112      184.258
2003   10   30    7   20   33      -73.084        8.097      188.390
2003   10   30    7   21   33      -76.016       10.738      190.869
2003   10   30    7   22   33      -77.871        9.942      191.560
2003   10   30    7   23   33      -80.240        9.937      189.752
2003   10   30    7   24   33      -81.569       10.118      186.642
2003   10   30    7   25   33      -82.922        9.480      187.201
2003   10   30    7   26   33      -84.443        9.678      187.311
2003   10   30    7   27   33      -85.261        9.141      186.736
2003   10   30    7   28   33      -86.924        9.516      186.631
2003   10   30    7   29   33      -87.861        9.892      186.285
2003   10   30    7   30   33      -88.923       10.650      185.740
2003   10   30    7   31   33      -89.246       10.953      184.648
2003   10   30    7   32   33      -89.676       11.024      183.185
2003   10   30    7   33   33      -89.672       11.966      181.069
2003   10   30    7   34   33      -88.662       11.055      181.199
2003   10   30    7   35   33      -87.782       10.431      183.274
2003   10   30    7   36   33      -85.817       10.206      185.188
2003   10   30    7   37   33      -83.349       11.172      187.767
2003   10   30    7   38   33      -80.516       11.664      189.547
2003   10   30    7   39   33      -78.715       11.194      189.003
2003   10   30    7   40   33      -75.731       12.659      189.860
2003   10   30    7   41   33      -73.669       13.467      190.623
2003   10   30    7   42   33      -72.989       12.325      191.630
2003   10   30    7   43   33      -71.347       12.098      190.209
2003   10   30    7   44   33      -69.709       12.829      191.049
2003   10   30    7   45   33      -69.464       13.073      190.934
2003   10   30    7   46   33      -70.594       12.974      187.113
2003   10   30    7   47   33      -72.220       11.716      182.573
2003   10   30    7   48   33      -74.183       10.171      178.564
2003   10   30    7   49   33      -74.274        9.474      175.498
2003   10   30    7   50   33      -75.278        7.931      173.322
2003   10   30    7   51   33      -75.525        6.010      171.185
2003   10   30    7   52   33      -76.918        3.402      170.302
2003   10   30    7   53   33      -78.521        2.666      168.975
2003   10   30    7   54   33      -80.367        1.394      169.836
2003   10   30    7   55   33      -83.125        0.932      169.455
2003   10   30    7   56   33      -84.112        0.840      171.678
2003   10   30    7   57   33      -85.898        0.646      174.921
2003   10   30    7   58   33      -86.285        1.245      175.217
2003   10   30    7   59   33      -86.187        1.891      177.304
2003   10   30    8    0   33      -86.975        3.244      179.164
2003   10   30    8    1   33      -86.605        4.306      179.660
2003   10   30    8    2   33      -86.302        5.313      179.753
2003   10   30    8    3   33      -86.212        6.653      179.971
2003   10   30    8    4   33      -85.544        8.137      180.152
2003   10   30    8    5   33      -84.863       10.159      181.348
2003   10   30    8    6   33      -83.609        9.744      182.580
2003   10   30    8    7   33      -83.255       10.934      183.872
2003   10   30    8    8   33      -85.913       12.575      187.240
2003   10   30    8    9   33      -84.850       14.737      188.059
2003   10   30    8   10   33      -83.553       14.706      188.873
2003   10   30    8   11   33      -83.748       13.798      190.612
2003   10   30    8   12   33      -83.957       13.387      192.205
2003   10   30    8   13   33      -84.695       13.243      193.657
2003   10   30    8   14   33      -84.507       10.899      193.734
2003   10   30    8   15   33      -85.570       10.653      193.911
2003   10   30    8   16   33      -85.680       10.635      193.994
2003   10   30    8   17   33      -85.767       10.049      193.353
2003   10   30    8   18   33      -85.009       10.161      191.548
2003   10   30    8   19   33      -82.755       10.959      191.520
2003   10   30    8   20   33      -81.788       10.396      190.611
2003   10   30    8   21   33      -81.168       11.489      189.238
2003   10   30    8   22   33      -79.976       12.009      188.018
2003   10   30    8   23   33      -79.340       12.089      185.846
2003   10   30    8   24   33      -79.490       12.538      183.501
2003   10   30    8   25   33      -79.574       12.883      181.909
2003   10   30    8   26   33      -80.715       13.728      181.003
2003   10   30    8   27   33      -80.322       14.238      179.962
2003   10   30    8   28   33      -80.051       14.968      179.490
2003   10   30    8   29   33      -79.738       15.722      178.410
2003   10   30    8   30   33      -79.782       16.052      176.996
2003   10   30    8   31   33      -80.087       16.365      175.813
2003   10   30    8   32   33      -80.739       15.762      173.681
2003   10   30    8   33   33      -82.016       16.046      172.943
2003   10   30    8   34   33      -82.651       15.464      172.540
2003   10   30    8   35   33      -83.645       15.101      171.395
2003   10   30    8   36   33      -83.867       14.831      170.685
2003   10   30    8   37   33      -83.969       13.935      169.710
2003   10   30    8   38   33      -84.949       13.462      169.363
2003   10   30    8   39   33      -87.585       14.804      167.649
2003   10   30    8   40   33      -88.765       14.695      165.488
2003   10   30    8   41   33      -86.885       13.522      163.796
2003   10   30    8   42   33      -86.976       12.119      161.117
2003   10   30    8   43   33      -90.433       12.544      158.435
2003   10   30    8   44   33      -92.069       13.343      158.821
2003   10   30    8   45   33      -94.467       13.572      161.173
2003   10   30    8   46   33      -94.060       13.399      163.619
2003   10   30    8   47   33      -91.433       12.723      163.534
2003   10   30    8   48   33      -88.248       15.316      164.868
2003   10   30    8   49   33      -82.245       14.620      165.907
2003   10   30    8   50   33      -76.095       14.685      167.311
2003   10   30    8   51   33      -71.761       15.485      170.103
2003   10   30    8   52   33      -68.436       15.813      172.690
2003   10   30    8   53   33      -66.011       15.798      173.880
2003   10   30    8   54   33      -62.642       15.619      174.849
2003   10   30    8   55   33      -59.981       15.133      175.144
2003   10   30    8   56   33      -56.653       14.156      177.255
2003   10   30    8   57   33      -53.101       11.730      175.679
2003   10   30    8   58   33      -51.799       11.420      175.584
2003   10   30    8   59   33      -49.085       10.445      175.281
2003   10   30    9    0   33      -48.412        8.891      174.320
2003   10   30    9    1   33      -45.588        8.376      174.986
2003   10   30    9    2   33      -45.476        7.059      174.655
2003   10   30    9    3   33      -45.299        6.546      173.766
2003   10   30    9    4   33      -44.926        7.841      175.573
2003   10   30    9    5   33      -42.980        7.450      178.845
2003   10   30    9    6   33      -41.926        7.500      182.375
2003   10   30    9    7   33      -35.309        1.857      181.725
2003   10   30    9    8   33      -35.485       -0.115      182.603
2003   10   30    9    9   33      -37.077       -1.003      186.103
2003   10   30    9   10   33      -36.512       -0.263      188.555
2003   10   30    9   11   33      -36.090       -1.303      189.893
2003   10   30    9   12   33      -36.861       -1.492      188.624
2003   10   30    9   13   33      -36.054       -1.571      190.174
2003   10   30    9   14   33      -34.023       -0.343      192.755
2003   10   30    9   15   33      -30.583        0.099      195.381
2003   10   30    9   16   33      -30.587        0.333      200.141
2003   10   30    9   17   33      -32.343        0.797      204.980
2003   10   30    9   18   33      -33.977        1.588      207.743
2003   10   30    9   19   33      -34.103        1.960      210.709
2003   10   30    9   20   33      -33.120        2.494      212.839
2003   10   30    9   21   33      -33.919        3.045      215.003
2003   10   30    9   22   33      -33.179        3.926      217.546
2003   10   30    9   23   33      -29.023        4.780      221.001
2003   10   30    9   24   33      -33.596        5.054      224.014
2003   10   30    9   25   33      -29.885        5.046      226.845
2003   10   30    9   26   33      -32.927        5.313      230.292
2003   10   30    9   27   33      -30.616        7.117      230.929
2003   10   30    9   28   33      -36.673        4.722      232.809
2003   10   30    9   29   33      -34.453        5.689      234.749
2003   10   30    9   30   33      -34.644        6.070      238.535
2003   10   30    9   31   33      -34.579        5.421      240.550
2003   10   30    9   32   33      -34.426        5.826      241.917
2003   10   30    9   33   33      -34.186        6.733      242.470
2003   10   30    9   34   33      -33.552        7.366      243.776
2003   10   30    9   35   33      -32.377        8.377      243.993
2003   10   30    9   36   33      -32.315        9.370      244.119
2003   10   30    9   37   33      -31.910        9.861      245.154
2003   10   30    9   38   33      -31.745       11.319      247.174
2003   10   30    9   39   33      -31.804       11.068      248.884
2003   10   30    9   40   33      -30.890       11.121      250.640
2003   10   30    9   41   33      -30.208       11.771      252.326
2003   10   30    9   42   33      -30.367       11.559      252.187
2003   10   30    9   43   33      -29.780       12.829      252.392
2003   10   30    9   44   33      -27.452       12.833      254.211
2003   10   30    9   45   33      -26.629       12.984      254.423
2003   10   30    9   46   33      -27.485       13.883      252.429
2003   10   30    9   47   33      -47.031        9.006      243.558
2003   10   30    9   48   33       -4.406       39.355      254.609
2003   10   30    9   49   33      -17.751       29.521      265.539
2003   10   30    9   50   33      -22.351       35.585      261.404
2003   10   30    9   51   33      -11.561       41.250      257.473
2003   10   30    9   52   33      -19.547       42.552      258.744
2003   10   30    9   53   33      -19.284       40.829      259.998
2003   10   30    9   54   33      -19.225       39.051      256.215
2003   10   30    9   55   33      -13.511       39.620      250.136
2003   10   30    9   56   33      -19.625       36.257      244.459
2003   10   30    9   57   33      -18.836       36.066      238.675
2003   10   30    9   58   33      -19.482       37.173      234.999
2003   10   30    9   59   33      -19.709       36.576      232.487
2003   10   30   10    0   33      -20.936       36.468      228.603
2003   10   30   10    1   33      -21.259       35.343      225.825
2003   10   30   10    2   33      -20.931       35.089      222.065
2003   10   30   10    3   33      -16.743       34.937      221.444
2003   10   30   10    4   33      -16.407       33.601      220.223
2003   10   30   10    5   33      -16.434       33.171      218.980
2003   10   30   10    6   33      -16.991       31.954      217.226
2003   10   30   10    7   33      -16.105       31.198      216.652
2003   10   30   10    8   33      -18.411       30.901      213.142
2003   10   30   10    9   33      -17.957       29.750      212.246
2003   10   30   10   10   33      -17.633       28.521      211.887
2003   10   30   10   11   33      -17.124       28.987      211.917
2003   10   30   10   12   33      -16.712       28.794      214.875
2003   10   30   10   13   33      -16.650       29.096      215.409
2003   10   30   10   14   33      -15.732       27.963      215.263
2003   10   30   10   15   33      -14.608       27.244      215.589
2003   10   30   10   16   33      -13.719       26.773      216.685
2003   10   30   10   17   33      -12.375       27.147      216.308
2003   10   30   10   18   33      -11.955       26.480      216.483
2003   10   30   10   19   33       -9.395       21.655      216.261
2003   10   30   10   20   33       -6.120       33.688      203.092
2003   10   30   10   21   33       -6.811       28.211      211.107
2003   10   30   10   22   33       -4.777       27.526      203.022
2003   10   30   10   23   33       -1.230       26.471      201.594
2003   10   30   10   24   33        0.956       25.621      205.005
2003   10   30   10   25   33        1.623       24.669      204.523
2003   10   30   10   26   33        0.583       24.970      200.287
2003   10   30   10   27   33        3.029       25.560      196.202
2003   10   30   10   28   33        4.285       25.133      191.490
2003   10   30   10   29   33        6.076       25.412      185.152
2003   10   30   10   30   33        7.052       25.765      180.522
2003   10   30   10   31   33        6.950       26.022      180.228
2003   10   30   10   32   33        8.238       26.473      178.445
2003   10   30   10   33   33        9.230       25.901      178.851
2003   10   30   10   34   33       11.418       25.337      178.423
2003   10   30   10   35   33       14.920       24.287      178.315
2003   10   30   10   36   33       16.047       22.871      176.811
2003   10   30   10   37   33       18.582       21.018      176.628
2003   10   30   10   38   33       22.224       20.715      175.793
2003   10   30   10   39   33       24.257       20.196      175.134
2003   10   30   10   40   33       20.690       19.869      172.521
2003   10   30   10   41   33       22.424       19.189      171.390
2003   10   30   10   42   33       25.589       17.688      170.137
2003   10   30   10   43   33       29.977       14.236      171.197
2003   10   30   10   44   33       30.776       13.811      169.714
2003   10   30   10   45   33       33.822       14.177      172.664
2003   10   30   10   46   33       31.427       15.153      175.724
2003   10   30   10   47   33       47.663       12.744      180.259
2003   10   30   10   48   33       57.431        8.844      178.801
2003   10   30   10   49   33       58.756        6.965      178.606
2003   10   30   10   50   33       55.711        7.509      179.696
2003   10   30   10   51   33       84.668       -0.186      172.221
2003   10   30   10   52   33       78.123        1.384      178.683
2003   10   30   10   53   33       67.296        7.652      196.180
2003   10   30   10   54   33       55.995        6.909      194.420
2003   10   30   10   55   33       55.127        7.229      191.239
2003   10   30   10   56   33       54.409        7.268      194.378
2003   10   30   10   57   33       49.722       10.314      197.607
2003   10   30   10   58   33       53.529       10.819      202.772
2003   10   30   10   59   33       56.710        9.681      202.316
2003   10   30   11    0   33       51.547       11.318      206.948
2003   10   30   11    1   33       24.296       15.752      205.540
2003   10   30   11    2   33       25.014       11.454      208.286
2003   10   30   11    3   33       21.304        8.965      204.244
2003   10   30   11    4   33       17.141        8.441      200.760
2003   10   30   11    5   33       12.426        8.394      199.086
2003   10   30   11    6   33       11.070        8.095      197.605
2003   10   30   11    7   33       14.108        9.505      193.728
2003   10   30   11    8   33       33.075        7.908      192.607
2003   10   30   11    9   33       57.030        4.518      196.156
2003   10   30   11   10   33       78.047        0.127      194.012
2003   10   30   11   11   33       89.690       -2.126      192.064
2003   10   30   11   12   33      104.959       -4.165      183.660
2003   10   30   11   13   33      120.550       -9.186      158.307
2003   10   30   11   14   33      127.759       -9.270      149.796
2003   10   30   11   15   33      132.408       -5.947      133.517
2003   10   30   11   16   33      129.107        1.158      122.066
2003   10   30   11   17   33      125.799        2.699      118.767
2003   10   30   11   18   33      127.180        5.355      113.372
2003   10   30   11   19   33      123.978        6.869      113.175
2003   10   30   11   20   33      120.008        9.902      107.670
2003   10   30   11   21   33      118.319       11.618      106.534
2003   10   30   11   22   33      113.881       14.524      102.987
2003   10   30   11   23   33      110.300       13.820      100.255
2003   10   30   11   24   33      111.621       15.204      100.111
2003   10   30   11   25   33      101.969       21.517       94.096
2003   10   30   11   26   33      127.198       19.918       84.049
2003   10   30   11   27   33      119.801       20.648       89.066
2003   10   30   11   28   33      120.371       21.568       89.386
2003   10   30   11   29   33      117.710       23.234       88.094
2003   10   30   11   30   33      123.509       21.091       84.585
2003   10   30   11   31   33      153.425        5.422       81.314
2003   10   30   11   32   33      162.561        2.012       78.638
2003   10   30   11   33   33      172.417       -3.876       84.781
2003   10   30   11   34   33      183.225       -1.304       75.526
2003   10   30   11   35   33      188.042       -2.969       71.059
2003   10   30   11   36   33      195.594       -2.869       72.473
2003   10   30   11   37   33      194.048        0.338       74.816
2003   10   30   11   38   33      190.708        3.358       76.088
2003   10   30   11   39   33      190.334        6.403       80.370
2003   10   30   11   40   33      188.319        8.448       78.938
2003   10   30   11   41   33      191.616        8.174       79.939
2003   10   30   11   42   33      194.175        9.531       79.646
2003   10   30   11   43   33      192.176        8.572       78.929
2003   10   30   11   44   33      189.527        8.733       80.825
2003   10   30   11   45   33      189.097       13.472       84.190
2003   10   30   11   46   33      195.425       16.781       79.252
2003   10   30   11   47   33      202.352       15.516       84.346
2003   10   30   11   48   33      205.807       14.866       81.817
2003   10   30   11   49   33      203.159       16.122       78.823
2003   10   30   11   50   33      192.431       17.936       78.075
2003   10   30   11   51   33      186.022       18.285       77.803
2003   10   30   11   52   33      187.313       15.096       78.332
2003   10   30   11   53   33      192.215       13.008       74.615
2003   10   30   11   54   33      200.330       11.135       74.963
2003   10   30   11   55   33      223.367        0.773       71.129
2003   10   30   11   56   33      247.650      -11.314       74.094
2003   10   30   11   57   33      263.660      -19.279       74.903
2003   10   30   11   58   33      268.465      -19.103       76.798
2003   10   30   11   59   33      270.731      -19.990       77.309
2003   10   30   12    0   33      277.199      -16.145       80.607
2003   10   30   12    1   33      278.197       -6.227       87.957
2003   10   30   12    2   33      273.936       -7.317       76.787
2003   10   30   12    3   33      279.549       -3.375       79.439
2003   10   30   12    4   33      284.720       -0.915       72.735
2003   10   30   12    5   33      301.113       -0.053       68.792
2003   10   30   12    6   33      319.781       -3.920       67.073
2003   10   30   12    7   33      338.249        1.706       63.950
2003   10   30   12    8   33      355.204        5.904       66.476
2003   10   30   12    9   33      365.331       15.184       67.352
2003   10   30   12   10   33      369.870       22.573       58.957
2003   10   30   12   11   33      365.485       31.997       52.551
2003   10   30   12   12   33      370.313       34.855       49.766
2003   10   30   12   13   33      384.446       39.889       62.394
2003   10   30   12   14   33      384.796       36.671       40.427
2003   10   30   12   15   33      391.115       36.047       42.368
2003   10   30   12   16   33      390.649       36.273       38.235
2003   10   30   12   17   33      389.407       36.775       34.496
2003   10   30   12   18   33      391.803       38.903       31.949
2003   10   30   12   19   33      390.010       44.256       28.634
2003   10   30   12   20   33      386.296       47.069       22.941
2003   10   30   12   21   33      380.158       57.327       21.326
2003   10   30   12   22   33      375.150       58.829       12.390
2003   10   30   12   23   33      370.298       59.253        2.839
2003   10   30   12   24   33      366.621       60.676       -6.884
2003   10   30   12   25   33      365.203       59.096      -13.473
2003   10   30   12   26   33      363.036       55.768      -23.731
2003   10   30   12   27   33      355.784       51.347      -33.564
2003   10   30   12   28   33      355.768       46.877      -32.176
2003   10   30   12   29   33      353.751       42.959      -32.362
2003   10   30   12   30   33      355.579       42.094      -27.869
2003   10   30   12   31   33      357.300       34.900      -24.213
2003   10   30   12   32   33      361.422       30.531      -19.677
2003   10   30   12   33   33      361.401       29.585      -15.826
2003   10   30   12   34   33      360.349       31.047      -14.356
2003   10   30   12   35   33      357.796       35.744      -15.942
2003   10   30   12   36   33      358.873       34.798      -20.783
2003   10   30   12   37   33      360.757       35.495      -20.649
2003   10   30   12   38   33      357.103       37.271      -23.497
2003   10   30   12   39   33      359.491       41.912      -28.663
2003   10   30   12   40   33      360.009       45.805      -27.407
2003   10   30   12   41   33      365.046       48.932      -21.410
2003   10   30   12   42   33      361.194       49.434      -22.606
2003   10   30   12   43   33      362.967       55.925      -18.944
2003   10   30   12   44   33      355.908       61.661      -20.101
2003   10   30   12   45   33      356.322       69.712      -21.763
2003   10   30   12   46   33      357.864       77.227      -26.262
2003   10   30   12   47   33      357.578       82.063      -36.103
2003   10   30   12   48   33      350.586       85.694      -49.556
2003   10   30   12   49   33      344.330       87.441      -62.075
2003   10   30   12   50   33      336.105       91.304      -71.853
2003   10   30   12   51   33      323.979       85.891      -86.433
2003   10   30   12   52   33      320.052       74.709      -92.953
2003   10   30   12   53   33      319.628       64.332      -91.037
2003   10   30   12   54   33      314.501       48.599      -93.433
2003   10   30   12   55   33      325.670       32.811      -80.847
2003   10   30   12   56   33      339.667       22.736      -63.041
2003   10   30   12   57   33      352.078       26.584      -40.494
2003   10   30   12   58   33      355.795       27.521      -23.129
2003   10   30   12   59   33      357.196       27.855       -8.890
2003   10   30   13    0   33      358.612       32.447       -0.920
2003   10   30   13    1   33      363.469       33.489       -0.523
2003   10   30   13    2   33      366.980       33.931       -7.108
2003   10   30   13    3   33      370.477       34.934      -11.578
2003   10   30   13    4   33      377.550       36.774       -3.837
2003   10   30   13    5   33      375.587       44.371      -25.061
2003   10   30   13    6   33      376.621       44.421      -13.556
2003   10   30   13    7   33      367.522       47.873      -16.721
2003   10   30   13    8   33      358.045       50.183      -30.357
2003   10   30   13    9   33      357.095       45.492      -39.837
2003   10   30   13   10   33      346.703       44.639      -48.706
2003   10   30   13   11   33      345.950       41.280      -53.519
2003   10   30   13   12   33      332.866       44.796      -59.728
2003   10   30   13   13   33      320.250       50.014      -63.858
2003   10   30   13   14   33      315.635       54.257      -65.458
2003   10   30   13   15   33      313.414       59.047      -63.764
2003   10   30   13   16   33      303.818       62.115      -65.524
2003   10   30   13   17   33      293.355       69.626      -59.800
2003   10   30   13   18   33      282.785       70.196      -60.905
2003   10   30   13   19   33      275.434       69.416      -61.989
2003   10   30   13   20   33      277.833       68.927      -57.867
2003   10   30   13   21   33      286.166       64.053      -59.106
2003   10   30   13   22   33      297.397       59.002      -58.947
2003   10   30   13   23   33      294.852       59.015      -53.910
2003   10   30   13   24   33      291.070       58.971      -50.578
2003   10   30   13   25   33      291.856       58.026      -49.073
2003   10   30   13   26   33      290.814       58.931      -41.151
2003   10   30   13   27   33      290.118       60.120      -36.053
2003   10   30   13   28   33      288.999       57.885      -34.223
2003   10   30   13   29   33      291.557       58.588      -34.614
2003   10   30   13   30   33      297.802       58.689      -33.295
2003   10   30   13   31   33      297.259       62.328      -31.630
2003   10   30   13   32   33      297.218       64.357      -33.864
2003   10   30   13   33   33      293.066       67.282      -38.023
2003   10   30   13   34   33      291.701       68.785      -43.249
2003   10   30   13   35   33      287.564       69.555      -53.697
2003   10   30   13   36   33      279.987       68.157      -65.061
2003   10   30   13   37   33      268.605       66.692      -75.631
2003   10   30   13   38   33      269.437       64.751      -85.803
2003   10   30   13   39   33      275.496       63.702      -91.059
2003   10   30   13   40   33      278.218       62.420      -95.970
2003   10   30   13   41   33      279.759       62.545      -99.322
2003   10   30   13   42   33      289.487       63.981     -104.493
2003   10   30   13   43   33      313.630       67.302     -110.431
2003   10   30   13   44   33      286.460       69.753     -108.421
2003   10   30   13   45   33      277.558       70.375     -114.754
2003   10   30   13   46   33      277.090       71.249     -118.429
2003   10   30   13   47   33      278.040       72.424     -119.881
2003   10   30   13   48   33      276.894       70.496     -121.328
2003   10   30   13   49   33      286.684       65.715     -125.632
2003   10   30   13   50   33      289.680       62.611     -126.071
2003   10   30   13   51   33      293.735       59.706     -125.989
2003   10   30   13   52   33      295.535       59.044     -127.275
2003   10   30   13   53   33      290.400       58.710     -134.250
2003   10   30   13   54   33      281.604       60.726     -141.992
2003   10   30   13   55   33      269.980       63.509     -150.058
2003   10   30   13   56   33      260.733       66.672     -158.247
2003   10   30   13   57   33      247.000       68.912     -166.165
2003   10   30   13   58   33      246.194       70.264     -169.989
2003   10   30   13   59   33      246.006       70.620     -172.798
2003   10   30   14    0   33      249.491       72.227     -172.931
2003   10   30   14    1   33      248.129       73.504     -175.575
2003   10   30   14    2   33      246.324       75.015     -177.643
2003   10   30   14    3   33      250.085       75.930     -177.302
2003   10   30   14    4   33      251.544       75.896     -176.895
2003   10   30   14    5   33      245.357       73.548     -176.073
2003   10   30   14    6   33      232.587       71.311     -175.530
2003   10   30   14    7   33      223.099       70.235     -175.079
2003   10   30   14    8   33      221.934       69.729     -174.224
2003   10   30   14    9   33      231.762       70.014     -175.283
2003   10   30   14   10   33      243.498       72.707     -177.339
2003   10   30   14   11   33      251.405       76.328     -183.375
2003   10   30   14   12   33      255.435       78.130     -186.414
2003   10   30   14   13   33      246.839       74.561     -186.304
2003   10   30   14   14   33      247.456       68.200     -194.291
2003   10   30   14   15   33      248.949       64.110     -204.618
2003   10   30   14   16   33      255.363       60.124     -211.833
2003   10   30   14   17   33      253.021       56.099     -218.494
2003   10   30   14   18   33      249.918       54.106     -223.043
2003   10   30   14   19   33      241.019       51.031     -226.812
2003   10   30   14   20   33      236.423       49.622     -228.423
2003   10   30   14   21   33      220.591       47.079     -226.746
2003   10   30   14   22   33      218.753       41.272     -225.150
2003   10   30   14   23   33      220.919       36.260     -224.404
2003   10   30   14   24   33      217.769       35.041     -221.932
2003   10   30   14   25   33      211.854       35.015     -218.509
2003   10   30   14   26   33      204.807       33.005     -215.789
2003   10   30   14   27   33      202.646       31.338     -211.924
2003   10   30   14   28   33      199.828       33.823     -206.018
2003   10   30   14   29   33      194.852       35.863     -200.369
2003   10   30   14   30   33      191.145       36.828     -198.606
2003   10   30   14   31   33      182.886       37.789     -201.464
2003   10   30   14   32   33      171.738       37.017     -205.241
2003   10   30   14   33   33      151.202       41.591     -210.206
2003   10   30   14   34   33      139.621       49.791     -214.587
2003   10   30   14   35   33      130.769       57.319     -215.199
2003   10   30   14   36   33      121.858       65.100     -213.498
2003   10   30   14   37   33      121.326       69.782     -212.182
2003   10   30   14   38   33      122.179       74.323     -212.747
2003   10   30   14   39   33      125.146       78.045     -213.295
2003   10   30   14   40   33      127.873       77.343     -214.956
2003   10   30   14   41   33      136.761       79.483     -217.228
2003   10   30   14   42   33      140.671       76.950     -221.558
2003   10   30   14   43   33      167.208       72.919     -218.332
2003   10   30   14   44   33      186.565       78.344     -209.094
2003   10   30   14   45   33      183.600       68.657     -209.700
2003   10   30   14   46   33      193.256       58.217     -208.536
2003   10   30   14   47   33      194.199       64.574     -205.556
2003   10   30   14   48   33      179.072       70.730     -206.173
2003   10   30   14   49   33      167.003       66.502     -207.607
2003   10   30   14   50   33      158.608       48.995     -204.901
2003   10   30   14   51   33      155.508       41.381     -197.163
2003   10   30   14   52   33      142.770       42.347     -191.498
2003   10   30   14   53   33      140.693       41.645     -183.452
2003   10   30   14   54   33      132.282       37.557     -178.064
2003   10   30   14   55   33      124.991       29.187     -176.119
2003   10   30   14   56   33      109.715       19.850     -174.417
2003   10   30   14   57   33       99.033       16.926     -172.464
2003   10   30   14   58   33       93.491       17.031     -170.268
2003   10   30   14   59   33       78.081       18.722     -169.150
2003   10   30   15    0   33       72.032       21.209     -170.097
2003   10   30   15    1   33       69.921       25.633     -172.769
2003   10   30   15    2   33       68.929       28.958     -174.901
2003   10   30   15    3   33       62.627       32.324     -179.246
2003   10   30   15    4   33       48.474       33.162     -182.727
2003   10   30   15    5   33       55.292       36.257     -186.903
2003   10   30   15    6   33       61.067       38.635     -189.153
2003   10   30   15    7   33       63.026       40.145     -190.565
2003   10   30   15    8   33       57.062       38.511     -191.375
2003   10   30   15    9   33       58.976       37.510     -193.454
2003   10   30   15   10   33       61.025       36.453     -196.520
2003   10   30   15   11   33       59.551       35.371     -199.076
2003   10   30   15   12   33       56.894       32.998     -201.106
2003   10   30   15   13   33       59.004       32.412     -203.093
2003   10   30   15   14   33       59.882       32.290     -204.936
2003   10   30   15   15   33       63.450       33.974     -206.708
2003   10   30   15   16   33       67.378       34.731     -209.003
2003   10   30   15   17   33       72.982       37.019     -208.744
2003   10   30   15   18   33       76.712       38.766     -207.759
2003   10   30   15   19   33       70.192       39.364     -204.082
2003   10   30   15   20   33       70.189       41.062     -201.335
2003   10   30   15   21   33       64.630       42.989     -200.315
2003   10   30   15   22   33       62.459       43.003     -198.302
2003   10   30   15   23   33       60.227       45.334     -199.009
2003   10   30   15   24   33       65.239       48.837     -199.141
2003   10   30   15   25   33       64.600       52.524     -198.571
2003   10   30   15   26   33       68.111       53.884     -196.546
2003   10   30   15   27   33       69.772       54.766     -191.769
2003   10   30   15   28   33       76.143       57.172     -186.423
2003   10   30   15   29   33       80.537       57.463     -181.800
2003   10   30   15   30   33       78.010       61.863     -177.668
2003   10   30   15   31   33       83.474       67.366     -176.010
2003   10   30   15   32   33       91.732       60.816     -177.472
2003   10   30   15   33   33       50.507       34.003     -186.273
2003   10   30   15   34   33       24.187       18.116     -196.330
2003   10   30   15   35   33       10.296        6.188     -206.478
2003   10   30   15   36   33        1.994       -0.311     -213.811
2003   10   30   15   37   33       -5.800       -3.176     -218.659
2003   10   30   15   38   33       -5.018       -8.103     -221.064
2003   10   30   15   39   33      -10.361       -9.627     -222.086
2003   10   30   15   40   33      -18.933      -13.863     -222.291
2003   10   30   15   41   33      -25.072      -17.430     -221.255
2003   10   30   15   42   33      -24.822      -16.414     -219.836
2003   10   30   15   43   33      -26.868      -15.006     -219.866
2003   10   30   15   44   33      -26.435       -9.712     -219.301
2003   10   30   15   45   33      -19.487       -1.901     -216.808
2003   10   30   15   46   33      -11.227        4.576     -212.558
2003   10   30   15   47   33       -1.019        8.218     -206.534
2003   10   30   15   48   33       10.308       16.938     -199.498
2003   10   30   15   49   33       81.801       41.405     -192.069
2003   10   30   15   50   33      162.474       65.364     -183.446
2003   10   30   15   51   33      169.985       79.872     -163.371
2003   10   30   15   52   33      191.659       95.404     -141.667
2003   10   30   15   53   33      199.186      108.454     -126.190
2003   10   30   15   54   33      203.022      113.055     -114.591
2003   10   30   15   55   33      200.667      115.762     -112.992
2003   10   30   15   56   33      201.122      117.916     -115.376
2003   10   30   15   57   33      209.066      112.607     -117.505
2003   10   30   15   58   33      203.747      112.140     -123.034
2003   10   30   15   59   33      192.713      105.469     -129.179
2003   10   30   16    0   33      197.267       98.911     -127.988
2003   10   30   16    1   33      193.042       95.028     -131.141
2003   10   30   16    2   33      192.574       89.769     -135.635
2003   10   30   16    3   33      190.783       89.509     -137.808
2003   10   30   16    4   33      201.846       88.020     -141.709
2003   10   30   16    5   33      225.596       86.631     -141.920
2003   10   30   16    6   33      234.300       79.813     -141.555
2003   10   30   16    7   33      230.251       77.970     -139.932
2003   10   30   16    8   33      212.280       71.106     -144.986
2003   10   30   16    9   33      201.462       65.514     -149.029
2003   10   30   16   10   33      182.720       72.347     -150.246
2003   10   30   16   11   33      179.714       97.763     -137.447
2003   10   30   16   12   33      155.455       71.359     -129.313
2003   10   30   16   13   33      145.820       40.857     -118.263
2003   10   30   16   14   33      180.637       52.888      -95.019
2003   10   30   16   15   33      217.556       83.585      -78.314
2003   10   30   16   16   33      219.544       99.985      -78.072
2003   10   30   16   17   33      122.828       75.781     -120.728
2003   10   30   16   18   33      109.285       69.330     -133.367
2003   10   30   16   19   33       91.349       56.380     -144.303
2003   10   30   16   20   33      157.990       81.885     -146.246
2003   10   30   16   21   33       16.799        8.544     -155.111
2003   10   30   16   22   33       26.844        3.067     -158.471
2003   10   30   16   23   33       12.926      -14.117     -203.410
2003   10   30   16   24   33      -12.538      -16.154     -219.635
2003   10   30   16   25   33      -14.760      -34.251     -211.287
2003   10   30   16   26   33      -50.426      -61.380     -204.938
2003   10   30   16   27   33      -88.630      -85.460     -199.391
2003   10   30   16   28   33      -94.626      -90.726     -199.209
2003   10   30   16   29   33     -106.248      -92.921     -201.735
2003   10   30   16   30   33     -110.884      -86.123     -203.925
2003   10   30   16   31   33     -120.916      -75.670     -206.097
2003   10   30   16   32   33     -139.707      -65.776     -206.556
2003   10   30   16   33   33     -132.266      -49.928     -216.783
2003   10   30   16   34   33     -135.227      -59.004     -220.465
2003   10   30   16   35   33     -132.366      -56.282     -238.249
2003   10   30   16   36   33     -139.816      -58.624     -243.518
2003   10   30   16   37   33     -144.392      -57.426     -224.610
2003   10   30   16   38   33     -143.962      -44.375     -212.046
2003   10   30   16   39   33     -141.541      -24.334     -221.286
2003   10   30   16   40   33     -147.218       -7.795     -247.511
2003   10   30   16   41   33     -149.496       -0.853     -275.538
2003   10   30   16   42   33     -155.020      -10.519     -296.417
2003   10   30   16   43   33     -154.204      -26.197     -308.755
2003   10   30   16   44   33     -153.006      -51.976     -320.025
2003   10   30   16   45   33     -143.503      -78.402     -322.148
2003   10   30   16   46   33     -135.697      -97.474     -312.829
2003   10   30   16   47   33     -143.245     -106.018     -295.973
2003   10   30   16   48   33     -139.591     -109.120     -281.880
2003   10   30   16   49   33     -140.212     -120.117     -265.415
2003   10   30   16   50   33     -119.673     -133.387     -278.275
2003   10   30   16   51   33     -151.750     -133.035     -289.882
2003   10   30   16   52   33     -112.236     -160.394     -267.837
2003   10   30   16   53   33     -139.068     -176.228     -308.875
2003   10   30   16   54   33     -180.023     -150.660     -354.634
2003   10   30   16   55   33      -92.073      -90.822     -421.835
2003   10   30   16   56   33      -46.068     -124.998     -460.124
2003   10   30   16   57   33      -91.812     -147.607     -412.347
2003   10   30   16   58   33     -126.213     -164.721     -348.622
2003   10   30   16   59   33       14.856      -35.124     -288.517
2003   10   30   17    0   33       92.165        7.992     -202.933
2003   10   30   17    1   33      146.417        2.862     -131.397
2003   10   30   17    2   33      112.718       -4.852     -125.740
2003   10   30   17    3   33       97.024        3.691     -119.787
2003   10   30   17    4   33       94.844      -31.297      -95.380
2003   10   30   17    5   33       22.459     -123.236      -51.474
2003   10   30   17    6   33        5.140      -53.695     -114.310
2003   10   30   17    7   33       42.380       34.443     -176.779
2003   10   30   17    8   33       85.668       54.465     -154.305
2003   10   30   17    9   33       95.960       31.789     -124.814
2003   10   30   17   10   33       65.786       -4.029     -113.806
2003   10   30   17   11   33       70.617      -55.456     -173.180
2003   10   30   17   12   33     -164.991     -148.721     -191.137
2003   10   30   17   13   33     -337.229     -250.494      -80.036
2003   10   30   17   14   33     -272.474     -435.213      228.882
2003   10   30   17   15   33     -130.112     -306.665     -118.830
2003   10   30   17   16   33     -215.125     -267.884     -243.246
2003   10   30   17   17   33     -304.830     -261.834     -254.069
2003   10   30   17   18   33     -391.578     -310.092     -418.389
2003   10   30   17   19   33     -475.974     -325.690     -486.919
2003   10   30   17   20   33     -381.055     -569.979     -615.126
2003   10   30   17   21   33     -148.678     -631.298     -462.234
2003   10   30   17   22   33     -152.189     -663.014     -521.235
2003   10   30   17   23   33     -362.687     -675.291     -640.072
2003   10   30   17   24   33     -429.286     -748.578     -450.202
2003   10   30   17   25   33     -310.978     -851.766     -428.941
2003   10   30   17   26   33     -198.504    -1027.210      375.185
2003   10   30   17   27   33     -177.716     -765.237      471.483
2003   10   30   17   28   33     -183.243     -726.073      586.975
2003   10   30   17   29   33     -240.923     -668.241     1074.990
2003   10   30   17   30   33     -451.406     -702.593      828.729
2003   10   30   17   31   33     -757.805     -806.473       90.542
2003   10   30   17   32   33     -862.510     -770.326      -62.553
2003   10   30   17   33   33     -991.040     -724.993      -52.464
2003   10   30   17   34   33     -983.569     -619.599      193.176
2003   10   30   17   35   33     -824.247     -641.441      513.401
2003   10   30   17   36   33     -764.282     -475.524      321.278
2003   10   30   17   37   33     -666.278     -399.944      189.039
2003   10   30   17   38   33     -759.310     -421.639      117.415
2003   10   30   17   39   33     -630.763     -374.235      203.733
2003   10   30   17   40   33     -317.703     -190.501      117.971
2003   10   30   17   41   33     -230.266     -154.098      -29.456
2003   10   30   17   42   33     -158.515     -206.761      -39.775
2003   10   30   17   43   33     -208.478     -323.343      172.124
2003   10   30   17   44   33     -187.418     -375.237      290.234
2003   10   30   17   45   33     -326.541     -270.114      441.339
2003   10   30   17   46   33     -443.453      -62.809      452.723
2003   10   30   17   47   33     -573.336     -163.372      240.200
2003   10   30   17   48   33     -603.910     -181.991       52.406
2003   10   30   17   49   33     -514.579     -231.851       39.989
2003   10   30   17   50   33     -342.970     -219.338       -6.847
2003   10   30   17   51   33     -198.086     -184.356      -60.391
2003   10   30   17   52   33     -144.190     -158.699     -117.814
2003   10   30   17   53   33     -276.876     -164.309       -0.114
2003   10   30   17   54   33     -409.500     -211.334       79.864
2003   10   30   17   55   33     -472.350     -237.836      118.532
2003   10   30   17   56   33     -526.819     -212.505      153.684
2003   10   30   17   57   33     -521.400     -232.685      154.328
2003   10   30   17   58   33     -466.105     -219.168      131.414
2003   10   30   17   59   33     -349.068     -195.877       60.294
2003   10   30   18    0   33     -307.077     -206.070      112.103
2003   10   30   18    1   33     -286.179     -220.097      141.446
2003   10   30   18    2   33     -293.135     -304.222      270.573
2003   10   30   18    3   33     -305.710     -422.769      542.019
2003   10   30   18    4   33     -360.230     -450.530      737.918
2003   10   30   18    5   33     -429.992     -320.671      736.241
2003   10   30   18    6   33     -437.179     -283.073      727.910
2003   10   30   18    7   33     -362.128     -262.276      689.074
2003   10   30   18    8   33     -318.879     -293.452      528.004
2003   10   30   18    9   33     -304.973     -336.107      431.828
2003   10   30   18   10   33     -296.554     -309.933      422.128
2003   10   30   18   11   33     -324.469     -208.443      485.936
2003   10   30   18   12   33     -448.166     -141.945      414.809
2003   10   30   18   13   33     -494.851     -108.527      422.744
2003   10   30   18   14   33     -516.877     -135.819      489.498
2003   10   30   18   15   33     -526.701     -152.558      636.585
2003   10   30   18   16   33     -545.632     -128.290      670.166
2003   10   30   18   17   33     -545.191     -169.872      816.540
2003   10   30   18   18   33     -535.278     -293.329      666.685
2003   10   30   18   19   33     -615.085     -310.709      645.806
2003   10   30   18   20   33     -335.631     -332.726      759.684
2003   10   30   18   21   33     -230.722     -281.743      592.371
2003   10   30   18   22   33     -222.759     -233.298      505.119
2003   10   30   18   23   33     -322.959     -107.828      351.644
2003   10   30   18   24   33     -406.840     -109.275      383.850
2003   10   30   18   25   33     -495.719     -150.002      350.948
2003   10   30   18   26   33     -714.250     -208.728      424.651
2003   10   30   18   27   33     -612.607     -105.748      518.193
2003   10   30   18   28   33     -462.782       -2.451      397.641
2003   10   30   18   29   33     -462.439      -12.535      435.458
2003   10   30   18   30   33     -467.704      -31.327      412.812
2003   10   30   18   31   33     -523.137      -43.102      320.166
2003   10   30   18   32   33     -542.734      -35.535      366.137
2003   10   30   18   33   33     -510.191      -46.133      487.716
2003   10   30   18   34   33     -504.445      -68.947      555.489
2003   10   30   18   35   33     -512.938     -134.710      485.609
2003   10   30   18   36   33     -431.574     -161.087      390.742
2003   10   30   18   37   33     -515.436     -106.979      368.322
2003   10   30   18   38   33     -561.315     -135.996      458.231
2003   10   30   18   39   33     -602.675     -121.931      542.290
2003   10   30   18   40   33     -565.282     -123.097      698.235
2003   10   30   18   41   33     -502.643     -149.194      741.701
2003   10   30   18   42   33     -470.237     -176.891      798.649
2003   10   30   18   43   33     -469.999     -238.740      911.179
2003   10   30   18   44   33     -459.185     -272.718      897.295
2003   10   30   18   45   33     -393.266     -285.137      901.186
2003   10   30   18   46   33     -289.735     -291.433      860.272
2003   10   30   18   47   33     -172.925     -289.936      888.025
2003   10   30   18   48   33      -75.467     -299.269      846.089
2003   10   30   18   49   33     -116.906     -303.405      799.945
2003   10   30   18   50   33      -97.660     -272.463      755.367
2003   10   30   18   51   33      -94.720     -263.885      828.064
2003   10   30   18   52   33     -250.770     -304.305      738.062
2003   10   30   18   53   33     -388.807     -273.240      648.439
2003   10   30   18   54   33     -441.625     -266.327      707.659
2003   10   30   18   55   33     -487.464     -248.460      837.527
2003   10   30   18   56   33     -374.238     -208.097      867.888
2003   10   30   18   57   33     -208.823     -188.934      837.454
2003   10   30   18   58   33     -247.362     -198.562      755.398
2003   10   30   18   59   33     -306.294     -209.649      794.217
2003   10   30   19    0   33     -268.262     -226.464      853.575
2003   10   30   19    1   33     -119.906     -247.285      774.323
2003   10   30   19    2   33      -42.536     -254.315      650.865
2003   10   30   19    3   33      -66.012     -290.215      568.022
2003   10   30   19    4   33      -69.189     -292.155      554.001
2003   10   30   19    5   33      -49.436     -268.056      579.508
2003   10   30   19    6   33      -54.391     -256.601      574.722
2003   10   30   19    7   33      -73.443     -255.878      679.614
2003   10   30   19    8   33     -246.453     -249.717      802.137
2003   10   30   19    9   33     -386.035     -219.906      934.097
2003   10   30   19   10   33     -439.892     -203.238     1029.670
2003   10   30   19   11   33     -413.384     -210.463     1070.230
2003   10   30   19   12   33     -375.597     -247.058     1110.930
2003   10   30   19   13   33     -316.223     -266.765     1078.610
2003   10   30   19   14   33     -297.520     -255.516      988.684
2003   10   30   19   15   33     -300.800     -203.321      829.793
2003   10   30   19   16   33     -284.274     -181.372      752.585
2003   10   30   19   17   33     -256.536     -216.562      746.976
2003   10   30   19   18   33     -321.756     -263.457      876.640
2003   10   30   19   19   33     -324.334     -238.414      863.496
2003   10   30   19   20   33     -413.729     -204.644      895.458
2003   10   30   19   21   33     -477.549     -189.239      916.351
2003   10   30   19   22   33     -500.700     -185.022      886.586
2003   10   30   19   23   33     -474.204     -154.860      852.161
2003   10   30   19   24   33     -442.378     -212.397      879.996
2003   10   30   19   25   33     -338.278     -189.426      842.501
2003   10   30   19   26   33     -308.726     -192.349      785.065
2003   10   30   19   27   33     -244.104     -198.480      754.009
2003   10   30   19   28   33     -221.572     -229.846      783.796
2003   10   30   19   29   33     -261.651     -266.783      831.505
2003   10   30   19   30   33     -302.425     -249.759      814.880
2003   10   30   19   31   33     -360.687     -279.958      840.324
2003   10   30   19   32   33     -345.422     -300.959      854.377
2003   10   30   19   33   33     -323.526     -308.513      874.512
2003   10   30   19   34   33     -284.144     -306.140      836.244
2003   10   30   19   35   33     -258.104     -313.506      824.950
2003   10   30   19   36   33     -380.267     -230.987      853.066
2003   10   30   19   37   33     -415.026     -223.226      928.921
2003   10   30   19   38   33     -407.165     -296.433      927.306
2003   10   30   19   39   33     -490.253     -350.540      890.365
2003   10   30   19   40   33     -416.388     -262.345      946.602
2003   10   30   19   41   33     -376.060     -203.200      969.706
2003   10   30   19   42   33     -368.246     -120.159      933.638
2003   10   30   19   43   33     -352.897     -123.417      856.012
2003   10   30   19   44   33     -310.140      -91.621      810.174
2003   10   30   19   45   33     -309.100     -154.724      831.770
2003   10   30   19   46   33     -138.907     -178.792      502.298
2003   10   30   19   47   33     -370.253     -283.925      430.996
2003   10   30   19   48   33     -318.062     -405.950      593.998
2003   10   30   19   49   33      -73.458     -225.352      485.463
2003   10   30   19   50   33     -354.646     -281.150      264.484
2003   10   30   19   51   33     -622.640     -236.780      271.680
2003   10   30   19   52   33     -543.262     -207.616      390.858
2003   10   30   19   53   33     -425.469     -117.811      392.936
2003   10   30   19   54   33     -487.743      -39.847      316.136
2003   10   30   19   55   33     -624.020      -17.665      322.763
2003   10   30   19   56   33     -683.311       21.874      313.449
2003   10   30   19   57   33     -801.895      -84.346      278.844
2003   10   30   19   58   33     -765.128     -116.771      317.283
2003   10   30   19   59   33     -615.144     -130.875      407.901
2003   10   30   20    0   33     -489.466     -104.273      468.987
2003   10   30   20    1   33     -481.795      -13.520      583.690
2003   10   30   20    2   33     -505.225       14.130      735.556
2003   10   30   20    3   33     -447.727       31.077      695.153
2003   10   30   20    4   33     -453.469      116.725      852.278
2003   10   30   20    5   33     -382.570       92.794      665.908
2003   10   30   20    6   33     -308.458      109.605      662.198
2003   10   30   20    7   33     -271.322       83.191      619.860
2003   10   30   20    8   33     -256.299       55.436      553.929
2003   10   30   20    9   33     -315.709       97.196      592.823
2003   10   30   20   10   33     -260.315       72.325      680.512
2003   10   30   20   11   33     -346.536       53.049      601.384
2003   10   30   20   12   33     -355.058       95.240      523.788
2003   10   30   20   13   33     -361.813       25.237      586.279
2003   10   30   20   14   33     -445.698      120.478      468.104
2003   10   30   20   15   33     -407.886      252.604      514.943
2003   10   30   20   16   33     -345.159      195.829      433.230
2003   10   30   20   17   33     -323.433      182.795      427.548
2003   10   30   20   18   33     -373.174      151.901      523.621
2003   10   30   20   19   33     -386.258      183.132      532.659
2003   10   30   20   20   33     -245.264       48.849      515.315
2003   10   30   20   21   33     -284.078     -117.420      180.260
2003   10   30   20   22   33     -853.869      -76.374       76.999
2003   10   30   20   23   33    -1027.210       19.350      259.356
2003   10   30   20   24   33    -1115.480       75.030      254.925
2003   10   30   20   25   33    -1047.250      145.271       69.875
2003   10   30   20   26   33    -1052.450       11.534        4.422
2003   10   30   20   27   33     -979.110     -170.689      -20.638
2003   10   30   20   28   33     -804.586     -451.279       93.107
2003   10   30   20   29   33     -544.934     -581.830      239.848
2003   10   30   20   30   33     -350.865     -362.748      -63.135
2003   10   30   20   31   33     -390.579     -270.844     -102.024
2003   10   30   20   32   33     -287.392     -194.371      -70.487
2003   10   30   20   33   33      -60.576     -143.889       16.438
2003   10   30   20   34   33      -33.541     -332.235      291.831
2003   10   30   20   35   33     -197.738     -176.531      689.316
2003   10   30   20   36   33     -263.973      -28.090      772.785
2003   10   30   20   37   33     -431.869        0.229      760.512
2003   10   30   20   38   33     -523.605       90.059      763.564
2003   10   30   20   39   33     -541.676      -65.685      728.628
2003   10   30   20   40   33     -602.274      -99.583      749.391
2003   10   30   20   41   33     -501.439      -97.697      809.457
2003   10   30   20   42   33     -402.561     -133.409      799.874
2003   10   30   20   43   33     -490.622     -117.785      720.837
2003   10   30   20   44   33     -552.024     -108.124      751.857
2003   10   30   20   45   33     -537.210      -81.838      770.415
2003   10   30   20   46   33     -515.848      -73.284      759.068
2003   10   30   20   47   33     -633.706     -189.999     1009.640
2003   10   30   20   48   33     -657.041     -167.587     1137.210
2003   10   30   20   49   33     -867.248       37.741     1214.310
2003   10   30   20   50   33     -952.425       44.610     1282.290
2003   10   30   20   51   33     -961.379      -15.505     1221.140
2003   10   30   20   52   33     -917.996      -14.353     1114.030
2003   10   30   20   53   33     -852.062       48.301     1059.150
2003   10   30   20   54   33     -855.687      -11.137     1141.630
2003   10   30   20   55   33     -945.769      -39.157     1190.990
2003   10   30   20   56   33    -1131.070     -150.135     1048.600
2003   10   30   20   57   33    -1122.650     -115.590     1009.030
2003   10   30   20   58   33    -1053.420      -31.142      957.790
2003   10   30   20   59   33    -1010.850      -44.699      950.186
2003   10   30   21    0   33     -921.946     -168.527      924.258
2003   10   30   21    1   33     -931.808     -346.213      851.026
2003   10   30   21    2   33    -1055.480     -264.297      822.292
2003   10   30   21    3   33    -1033.050     -174.648      770.769
2003   10   30   21    4   33     -844.652      -64.604      756.206
2003   10   30   21    5   33     -714.400      -28.734      752.657
2003   10   30   21    6   33     -526.013     -108.376      858.953
2003   10   30   21    7   33     -335.842     -209.353      969.038
2003   10   30   21    8   33     -398.778     -203.540      929.791
2003   10   30   21    9   33     -408.068     -170.857      932.355
2003   10   30   21   10   33     -497.266      -80.714      954.092
2003   10   30   21   11   33     -495.646        9.452     1060.180
2003   10   30   21   12   33     -403.571      -55.878     1134.270
2003   10   30   21   13   33     -357.113      -28.599     1240.900
2003   10   30   21   14   33     -176.203     -140.577     1208.720
2003   10   30   21   15   33     -385.705      -90.088     1356.580
2003   10   30   21   16   33     -622.028       11.338     1221.390
2003   10   30   21   17   33     -629.702        3.386     1148.350
2003   10   30   21   18   33     -508.465      -21.810     1229.750
2003   10   30   21   19   33     -119.522     -159.004     1222.750
2003   10   30   21   20   33     -155.789     -418.764      855.615
2003   10   30   21   21   33     -685.884      -42.184      412.138
2003   10   30   21   22   33     -666.384      -25.154      402.451
2003   10   30   21   23   33     -573.449      -35.237      453.188
2003   10   30   21   24   33     -447.771      -49.075      355.753
2003   10   30   21   25   33     -531.129     -104.750      382.689
2003   10   30   21   26   33     -325.721      -85.444      695.466
2003   10   30   21   27   33     -319.143      -94.785      941.576
2003   10   30   21   28   33     -261.332      -75.365      945.459
2003   10   30   21   29   33     -547.642     -185.260      900.668
2003   10   30   21   30   33     -449.508     -150.894     1225.780
2003   10   30   21   31   33     -345.498     -149.694     1078.000
2003   10   30   21   32   33     -782.875      -63.260      716.612
2003   10   30   21   33   33     -856.075       51.980      630.824
2003   10   30   21   34   33     -351.690     -234.614      857.040
2003   10   30   21   35   33     -280.038     -235.792      293.691
2003   10   30   21   36   33     -594.230     -277.533      177.930
2003   10   30   21   37   33     -828.092       41.645      326.229
2003   10   30   21   38   33     -928.664      342.692      487.547
2003   10   30   21   39   33     -777.291      610.612      449.965
2003   10   30   21   40   33     -712.230      372.868      485.412
2003   10   30   21   41   33     -647.206      233.557      521.327
2003   10   30   21   42   33     -579.892      214.985      624.558
2003   10   30   21   43   33     -771.679      289.937      850.611
2003   10   30   21   44   33     -788.889      393.482      893.112
2003   10   30   21   45   33     -766.079      420.495      851.577
2003   10   30   21   46   33     -752.301      186.567      971.943
2003   10   30   21   47   33     -640.159      -45.462      719.339
2003   10   30   21   48   33     -622.418     -123.231      516.247
2003   10   30   21   49   33     -608.045      -71.569      452.771
2003   10   30   21   50   33     -521.235      -30.359      421.186
2003   10   30   21   51   33     -528.245      -54.871      515.657
2003   10   30   21   52   33     -513.784      -39.773      509.322
2003   10   30   21   53   33     -458.845      -16.162      622.056
2003   10   30   21   54   33     -486.250      -76.350      627.844
2003   10   30   21   55   33     -446.118      -60.527      514.129
2003   10   30   21   56   33     -378.733        1.782      446.174
2003   10   30   21   57   33     -432.918       -1.325      479.003
2003   10   30   21   58   33     -384.666       -9.119      437.841
2003   10   30   21   59   33     -436.969      -35.257      505.022
2003   10   30   22    0   33     -432.533      -51.596      499.500
2003   10   30   22    1   33     -492.519      -58.448      510.303
2003   10   30   22    2   33     -482.163      -60.779      502.282
2003   10   30   22    3   33     -533.566      -83.409      579.916
2003   10   30   22    4   33     -564.145      -69.273      625.113
2003   10   30   22    5   33     -572.244      -69.740      705.576
2003   10   30   22    6   33     -543.351      -49.330      746.470
2003   10   30   22    7   33     -513.697      -46.033      695.662
2003   10   30   22    8   33     -436.413      -48.630      665.897
2003   10   30   22    9   33     -425.088      -52.556      642.669
2003   10   30   22   10   33     -406.223      -48.507      640.895
2003   10   30   22   11   33     -362.340      -66.772      683.017
2003   10   30   22   12   33     -334.040      -33.799      631.847
2003   10   30   22   13   33     -318.079        4.263      574.783
2003   10   30   22   14   33     -293.138       25.272      557.696
2003   10   30   22   15   33     -302.061       -6.090      612.784
2003   10   30   22   16   33     -237.771      -45.298      613.263
2003   10   30   22   17   33     -203.882      -91.298      626.698
2003   10   30   22   18   33     -150.659     -152.220      553.484
2003   10   30   22   19   33     -135.567     -168.845      464.581
2003   10   30   22   20   33     -104.501     -100.615      348.203
2003   10   30   22   21   33     -136.559     -100.233      383.144
2003   10   30   22   22   33     -131.616     -111.249      464.811
2003   10   30   22   23   33     -119.884     -137.922      517.288
2003   10   30   22   24   33      -99.749     -193.664      453.549
2003   10   30   22   25   33     -129.305     -206.559      353.858
2003   10   30   22   26   33     -137.234     -175.667      237.739
2003   10   30   22   27   33     -207.034     -148.517      124.766
2003   10   30   22   28   33     -264.351     -136.763      152.938
2003   10   30   22   29   33     -391.184      -40.846      260.924
2003   10   30   22   30   33     -461.710       47.894      324.564
2003   10   30   22   31   33     -498.052      105.675      313.729
2003   10   30   22   32   33     -448.918       93.373      414.970
2003   10   30   22   33   33     -422.969      -15.537      312.016
2003   10   30   22   34   33     -279.979       12.326      377.977
2003   10   30   22   35   33     -224.341        8.709      341.652
2003   10   30   22   36   33     -150.109       13.824      323.854
2003   10   30   22   37   33      -94.075       -8.207      339.816
2003   10   30   22   38   33      -54.138      -18.385      348.122
2003   10   30   22   39   33      -16.379      -11.675      385.406
2003   10   30   22   40   33       17.606       -3.279      398.578
2003   10   30   22   41   33       29.767       -7.629      408.569
2003   10   30   22   42   33       28.098      -11.622      418.869
2003   10   30   22   43   33       34.019       -5.979      411.613
2003   10   30   22   44   33       36.140      -11.176      440.651
2003   10   30   22   45   33       43.003      -40.442      471.174
2003   10   30   22   46   33       49.023      -83.160      496.185
2003   10   30   22   47   33      -10.813     -107.780      548.080
2003   10   30   22   48   33     -150.034     -127.586      572.900
2003   10   30   22   49   33     -205.224      -73.431      587.447
2003   10   30   22   50   33     -246.249      -56.769      619.654
2003   10   30   22   51   33     -287.283      -51.200      642.227
2003   10   30   22   52   33     -293.436      -70.439      659.581
2003   10   30   22   53   33     -262.539     -124.682      641.355
2003   10   30   22   54   33     -150.435     -131.680      644.840
2003   10   30   22   55   33      -96.996     -110.569      648.020
2003   10   30   22   56   33      -77.966      -96.480      665.176
2003   10   30   22   57   33     -124.534      -41.350      694.397
2003   10   30   22   58   33     -205.140       19.867      746.118
2003   10   30   22   59   33     -213.997       39.925      809.420
2003   10   30   23    0   33     -275.825       27.353      865.895
2003   10   30   23    1   33     -415.047        5.951      930.888
2003   10   30   23    2   33     -554.106      -16.343      972.544
2003   10   30   23    3   33     -588.675        6.645     1008.150
2003   10   30   23    4   33     -599.735       11.472     1021.850
2003   10   30   23    5   33     -680.923       67.312     1000.620
2003   10   30   23    6   33     -701.909       61.124      944.228
2003   10   30   23    7   33     -784.827       13.790      946.151
2003   10   30   23    8   33     -834.767       -7.359      941.145
2003   10   30   23    9   33     -849.126      -14.306      962.324
2003   10   30   23   10   33     -849.126       27.458     1000.070
2003   10   30   23   11   33     -833.166       96.652     1266.310
2003   10   30   23   12   33     -850.055       45.941     1336.530
2003   10   30   23   13   33     -724.892      -22.118     1306.920
2003   10   30   23   14   33     -656.835      -23.696     1253.550
2003   10   30   23   15   33     -681.812     -205.676     1237.380
2003   10   30   23   16   33     -684.171     -270.179     1171.840
2003   10   30   23   17   33     -588.449     -263.535     1142.120
2003   10   30   23   18   33     -436.832     -229.267     1160.520
2003   10   30   23   19   33     -516.342     -192.992     1002.410
2003   10   30   23   20   33     -400.578     -168.053      935.607
2003   10   30   23   21   33     -292.351     -178.752      867.443
2003   10   30   23   22   33     -160.612     -245.597      749.269
2003   10   30   23   23   33     -129.250     -342.764      668.370
2003   10   30   23   24   33     -190.198     -332.932      711.295
2003   10   30   23   25   33       21.568     -362.587      430.636
2003   10   30   23   26   33      -24.123     -386.813      444.927
2003   10   30   23   27   33      -79.740     -312.268      523.645
2003   10   30   23   28   33     -101.481     -132.206      621.167
2003   10   30   23   29   33     -111.425      -81.078      636.361
2003   10   30   23   30   33     -126.925      -32.485      674.737
2003   10   30   23   31   33       -6.188       74.483      733.731
2003   10   30   23   32   33       37.837       90.784      725.823
2003   10   30   23   33   33      114.830      128.847      767.541
2003   10   30   23   34   33      -61.632       82.440      715.519
2003   10   30   23   35   33      -34.485       79.320      774.860
2003   10   30   23   36   33      -67.114       43.482      780.689
2003   10   30   23   37   33      -63.901       91.482      767.700
2003   10   30   23   38   33      -98.433       93.079      654.163
2003   10   30   23   39   33     -197.237        6.916      674.023
2003   10   30   23   40   33     -210.623       46.932      619.888
2003   10   30   23   41   33     -249.173       35.675      584.307
2003   10   30   23   42   33     -331.841        6.835      585.580
2003   10   30   23   43   33     -450.549      -25.090      612.022
2003   10   30   23   44   33     -564.824      -46.740      655.415
2003   10   30   23   45   33     -726.325      -67.828      731.985
2003   10   30   23   46   33     -860.652      -87.952      821.714
2003   10   30   23   47   33     -998.603      -27.491      903.165
2003   10   30   23   48   33    -1078.810       57.778      969.559
2003   10   30   23   49   33    -1103.070       86.828     1048.060
2003   10   30   23   50   33    -1171.430      113.221     1038.250
2003   10   30   23   51   33    -1184.350      162.268      995.071
2003   10   30   23   52   33    -1220.730      252.826      940.676
2003   10   30   23   53   33    -1161.080      280.356      901.243
2003   10   30   23   54   33     -922.322      -45.782      899.259
2003   10   30   23   55   33     -602.653     -318.594      765.548
2003   10   30   23   56   33     -768.045     -202.244      645.975
2003   10   30   23   57   33     -650.700     -301.364      699.120
2003   10   30   23   58   33     -374.096     -426.172     1161.880
2003   10   30   23   59   33     -316.952     -378.961     1248.510
2003   10   31    0    0   33     -399.519     -258.255     1357.490
2003   10   31    0    1   33     -354.684     -348.423     1228.840
2003   10   31    0    2   33     -404.374     -375.305     1270.210
2003   10   31    0    3   33     -596.503     -354.447     1154.340
2003   10   31    0    4   33     -780.418     -294.778      867.648
2003   10   31    0    5   33     -853.782     -201.067      771.470
2003   10   31    0    6   33     -929.153     -198.016      815.630
2003   10   31    0    7   33     -844.327     -205.278      925.427
2003   10   31    0    8   33     -816.915     -205.227     1001.850
2003   10   31    0    9   33     -830.032     -101.235      917.864
2003   10   31    0   10   33     -784.257     -166.616      994.210
2003   10   31    0   11   33     -679.160     -316.443     1299.560
2003   10   31    0   12   33     -667.870     -135.137     1995.320
2003   10   31    0   13   33    -1075.020      133.242     1872.970
2003   10   31    0   14   33     -888.764       95.224     1832.910
2003   10   31    0   15   33     -907.773     -209.899     1544.420
2003   10   31    0   16   33    -1152.080     -220.245     1166.350
2003   10   31    0   17    2    -1225.770     -179.365     1059.250
